%OpenBCI Raw EEG Data
%
%Sample Rate = 1000.0 Hz
%First Column = SampleIndex
%Last Column = Timestamp 
%Other Columns = EEG data in microvolts followed by Accel Data (in G) interleaved with Aux Data
99, -187500.02, 187500.00, -187500.02, -187500.02, -187500.02, -187500.02, -187500.02, -187500.02, 0.000, 0.000, 0.000, 17:49:23.604
0, 0.00, 0.00, 0.00, 0.00, 0.00, 0.00, 0.00, 0.00, 0.000, 0.000, 0.000, 17:49:23.614
1, -187500.02, 65424.87, -173703.98, -138590.75, -187500.02, -185572.38, -187500.02, -187500.02, 0.000, 0.000, 0.000, 17:49:23.614
2, -187500.02, 65416.67, -173703.17, -138589.14, -187500.02, -185571.42, -187500.02, -187500.02, 0.000, 0.000, 0.000, 17:49:23.614
3, -187500.02, 65407.66, -173702.42, -138587.77, -187500.02, -185570.69, -187500.02, -187500.02, 0.000, 0.000, 0.000, 17:49:23.614
4, -187500.02, 65397.71, -173702.42, -138586.80, -187500.02, -185570.45, -187500.02, -187500.02, 0.000, 0.000, 0.000, 17:49:23.615
5, -187500.02, 65386.02, -173700.11, -138583.69, -187500.02, -185568.11, -187500.02, -187500.02, 0.000, 0.000, 0.000, 17:49:23.615
6, -187500.02, 65379.10, -173700.27, -138583.09, -187500.02, -185568.17, -187500.02, -187500.02, 0.000, 0.000, 0.000, 17:49:23.615
7, -187500.02, 65375.03, -173700.81, -138583.16, -187500.02, -185568.69, -187500.02, -187500.02, 0.000, 0.000, 0.000, 17:49:23.616
8, -187500.02, 65368.55, -173696.98, -138578.55, -187500.02, -185565.05, -187500.02, -187500.02, 0.000, 0.000, 0.000, 17:49:23.625
9, -187500.02, 65366.36, -173695.16, -138576.00, -187500.02, -185562.95, -187500.02, -187500.02, 0.000, 0.000, 0.000, 17:49:23.625
10, -187500.02, 65367.99, -173693.91, -138574.27, -187500.02, -185561.66, -187500.02, -187500.02, 0.000, 0.000, 0.000, 17:49:23.626
11, -187500.02, 65374.07, -173695.56, -138575.20, -187500.02, -185563.38, -187500.02, -187500.02, 0.000, 0.000, 0.000, 17:49:23.626
12, -187500.02, 65381.06, -173696.97, -138576.11, -187500.02, -185564.80, -187500.02, -187500.02, 0.000, 0.000, 0.000, 17:49:23.627
13, -187500.02, 65384.41, -173693.88, -138572.41, -187500.02, -185561.63, -187500.02, -187500.02, 0.000, 0.000, 0.000, 17:49:23.627
14, -187500.02, 65389.42, -173689.97, -138568.05, -187500.02, -185558.00, -187500.02, -187500.02, 0.000, 0.000, 0.000, 17:49:23.627
15, -187500.02, 65400.40, -173692.89, -138570.19, -187500.02, -185560.88, -187500.02, -187500.02, 0.000, 0.000, 0.000, 17:49:23.627
16, -187500.02, 65407.28, -173693.88, -138570.66, -187500.02, -185561.92, -187500.02, -187500.02, 0.000, 0.000, 0.000, 17:49:23.627
17, -187500.02, 65410.12, -173693.52, -138569.77, -187500.02, -185561.56, -187500.02, -187500.02, 0.000, 0.000, 0.000, 17:49:23.628
18, -187500.02, 65411.73, -173694.31, -138569.91, -187500.02, -185562.30, -187500.02, -187500.02, 0.000, 0.000, 0.000, 17:49:23.634
19, -187500.02, 65409.61, -173692.97, -138567.94, -187500.02, -185561.14, -187500.02, -187500.02, 0.000, 0.000, 0.000, 17:49:23.635
20, -187500.02, 65402.50, -173690.03, -138564.36, -187500.02, -185557.78, -187500.02, -187500.02, 0.000, 0.000, 0.000, 17:49:23.635
21, -187500.02, 65396.87, -173690.73, -138564.16, -187500.02, -185558.34, -187500.02, -187500.02, 0.000, 0.000, 0.000, 17:49:23.635
22, -187500.02, 65391.88, -173693.13, -138565.55, -187500.02, -185560.80, -187500.02, -187500.02, 0.000, 0.000, 0.000, 17:49:23.635
23, -187500.02, 65382.11, -173691.72, -138563.52, -187500.02, -185559.33, -187500.02, -187500.02, 0.000, 0.000, 0.000, 17:49:23.635
24, -187500.02, 65369.46, -173689.08, -138560.30, -187500.02, -185556.63, -187500.02, -187500.02, 0.000, 0.000, 0.000, 17:49:23.635
25, -187500.02, 65358.27, -173687.44, -138557.67, -187500.02, -185554.66, -187500.02, -187500.02, 0.000, 0.000, 0.000, 17:49:23.636
26, -187500.02, 65351.27, -173687.78, -138557.14, -187500.02, -185554.88, -187500.02, -187500.02, 0.000, 0.000, 0.000, 17:49:23.636
27, -187500.02, 65345.28, -173686.66, -138555.59, -187500.02, -185553.98, -187500.02, -187500.02, 0.000, 0.000, 0.000, 17:49:23.636
28, -187500.02, 65338.48, -173682.14, -138550.59, -187500.02, -185549.52, -187500.02, -187500.02, 0.000, 0.000, 0.000, 17:49:23.642
29, -187500.02, 65337.97, -173681.81, -138549.55, -187500.02, -185549.09, -187500.02, -187500.02, 0.000, 0.000, 0.000, 17:49:23.643
30, -187500.02, 65341.81, -173683.08, -138550.28, -187500.02, -185550.41, -187500.02, -187500.02, 0.000, 0.000, 0.000, 17:49:23.643
31, -187500.02, 65350.55, -173687.44, -138553.86, -187500.02, -185554.72, -187500.02, -187500.02, 0.000, 0.000, 0.000, 17:49:23.643
32, -187500.02, 65355.49, -173686.84, -138552.72, -187500.02, -185554.16, -187500.02, -187500.02, 0.000, 0.000, 0.000, 17:49:23.643
33, -187500.02, 65359.56, -173684.16, -138549.34, -187500.02, -185551.61, -187500.02, -187500.02, 0.000, 0.000, 0.000, 17:49:23.643
34, -187500.02, 65369.73, -173685.59, -138550.14, -187500.02, -185553.36, -187500.02, -187500.02, 0.000, 0.000, 0.000, 17:49:23.643
35, -187500.02, 65377.26, -173685.13, -138548.95, -187500.02, -185552.70, -187500.02, -187500.02, 0.000, 0.000, 0.000, 17:49:23.644
36, -187500.02, 65380.88, -173682.33, -138545.89, -187500.02, -185550.05, -187500.02, -187500.02, 0.000, 0.000, 0.000, 17:49:23.644
37, -187500.02, 65385.54, -173683.95, -138546.75, -187500.02, -185551.53, -187500.02, -187500.02, 0.000, 0.000, 0.000, 17:49:23.644
38, -187500.02, 65385.69, -173683.20, -138545.36, -187500.02, -185550.83, -187500.02, -187500.02, 0.000, 0.000, 0.000, 17:49:23.658
39, -187500.02, 65385.55, -173683.95, -138545.45, -187500.02, -185551.84, -187500.02, -187500.02, 0.000, 0.000, 0.000, 17:49:23.658
40, -187500.02, 65379.97, -173682.23, -138542.92, -187500.02, -185549.72, -187500.02, -187500.02, 0.000, 0.000, 0.000, 17:49:23.658
41, -187500.02, 65374.00, -173682.59, -138542.50, -187500.02, -185549.95, -187500.02, -187500.02, 0.000, 0.000, 0.000, 17:49:23.658
42, -187500.02, 65364.34, -173680.41, -138539.61, -187500.02, -185547.66, -187500.02, -187500.02, 0.000, 0.000, 0.000, 17:49:23.658
43, -187500.02, 65354.33, -173678.66, -138537.09, -187500.02, -185545.80, -187500.02, -187500.02, 0.000, 0.000, 0.000, 17:49:23.658
44, -187500.02, 65345.34, -173679.22, -138537.11, -187500.02, -185546.66, -187500.02, -187500.02, 0.000, 0.000, 0.000, 17:49:23.659
45, -187500.02, 65336.07, -173679.55, -138536.75, -187500.02, -185546.89, -187500.02, -187500.02, 0.000, 0.000, 0.000, 17:49:23.659
46, -187500.02, 65328.20, -173679.34, -138535.45, -187500.02, -185546.19, -187500.02, -187500.02, 0.000, 0.000, 0.000, 17:49:23.659
47, -187500.02, 65321.09, -173677.30, -138532.73, -187500.02, -185544.27, -187500.02, -187500.02, 0.000, 0.000, 0.000, 17:49:23.659
48, -187500.02, 65314.23, -173673.20, -138527.86, -187500.02, -185540.13, -187500.02, -187500.02, 0.000, 0.000, 0.000, 17:49:23.664
49, -187500.02, 65310.03, -173669.22, -138523.39, -187500.02, -185535.81, -187500.02, -187500.02, 0.000, 0.000, 0.000, 17:49:23.664
50, -187500.02, 65314.23, -173671.17, -138524.73, -187500.02, -185537.72, -187500.02, -187500.02, 0.000, 0.000, 0.000, 17:49:23.664
51, -187500.02, 65321.32, -173674.02, -138526.97, -187500.02, -185540.61, -187500.02, -187500.02, 0.000, 0.000, 0.000, 17:49:23.664
52, -187500.02, 65325.23, -173672.42, -138524.63, -187500.02, -185539.13, -187500.02, -187500.02, 0.000, 0.000, 0.000, 17:49:23.664
53, -187500.02, 65333.95, -173674.36, -138525.95, -187500.02, -185541.06, -187500.02, -187500.02, 0.000, 0.000, 0.000, 17:49:23.665
54, -187500.02, 65345.17, -173677.16, -138528.19, -187500.02, -185544.02, -187500.02, -187500.02, 0.000, 0.000, 0.000, 17:49:23.665
55, -187500.02, 65351.78, -173675.16, -138525.78, -187500.02, -185542.19, -187500.02, -187500.02, 0.000, 0.000, 0.000, 17:49:23.665
56, -187500.02, 65358.80, -173676.00, -138526.14, -187500.02, -185543.30, -187500.02, -187500.02, 0.000, 0.000, 0.000, 17:49:23.665
57, -187500.02, 65362.40, -173675.97, -138525.36, -187500.02, -185543.25, -187500.02, -187500.02, 0.000, 0.000, 0.000, 17:49:23.665
58, -187500.02, 65363.85, -173676.48, -138525.20, -187500.02, -185543.67, -187500.02, -187500.02, 0.000, 0.000, 0.000, 17:49:23.675
59, -187500.02, 65362.20, -173675.34, -138523.64, -187500.02, -185542.52, -187500.02, -187500.02, 0.000, 0.000, 0.000, 17:49:23.675
60, -187500.02, 65357.75, -173674.61, -138522.30, -187500.02, -185541.75, -187500.02, -187500.02, 0.000, 0.000, 0.000, 17:49:23.675
61, -187500.02, 65352.77, -173676.33, -138523.02, -187500.02, -185543.33, -187500.02, -187500.02, 0.000, 0.000, 0.000, 17:49:23.675
62, -187500.02, 65345.77, -173676.78, -138522.63, -187500.02, -185543.66, -187500.02, -187500.02, 0.000, 0.000, 0.000, 17:49:23.680
63, -187500.02, 65335.58, -173674.81, -138519.88, -187500.02, -185541.52, -187500.02, -187500.02, 0.000, 0.000, 0.000, 17:49:23.680
64, -187500.02, 65323.95, -173672.78, -138517.16, -187500.02, -185539.45, -187500.02, -187500.02, 0.000, 0.000, 0.000, 17:49:23.680
65, -187500.02, 65316.22, -173674.61, -138518.19, -187500.02, -185541.31, -187500.02, -187500.02, 0.000, 0.000, 0.000, 17:49:23.681
66, -187500.02, 65308.49, -173674.55, -138517.16, -187500.02, -185540.97, -187500.02, -187500.02, 0.000, 0.000, 0.000, 17:49:23.681
67, -187500.02, 65302.36, -173673.47, -138515.39, -187500.02, -185539.77, -187500.02, -187500.02, 0.000, 0.000, 0.000, 17:49:23.681
68, -187500.02, 65300.33, -173674.09, -138515.52, -187500.02, -185540.39, -187500.02, -187500.02, 0.000, 0.000, 0.000, 17:49:23.683
69, -187500.02, 65299.57, -173673.81, -138514.53, -187500.02, -185540.02, -187500.02, -187500.02, 0.000, 0.000, 0.000, 17:49:23.683
70, -187500.02, 65301.11, -173673.09, -138513.13, -187500.02, -185539.30, -187500.02, -187500.02, 0.000, 0.000, 0.000, 17:49:23.684
71, -187500.02, 65306.21, -173673.63, -138513.08, -187500.02, -185539.83, -187500.02, -187500.02, 0.000, 0.000, 0.000, 17:49:23.684
72, -187500.02, 65310.92, -173672.53, -138511.47, -187500.02, -185538.94, -187500.02, -187500.02, 0.000, 0.000, 0.000, 17:49:23.684
73, -187500.02, 65313.49, -173668.36, -138506.64, -187500.02, -185534.94, -187500.02, -187500.02, 0.000, 0.000, 0.000, 17:49:23.684
74, -187500.02, 65323.33, -173670.02, -138507.70, -187500.02, -185536.48, -187500.02, -187500.02, 0.000, 0.000, 0.000, 17:49:23.684
75, -187500.02, 65330.39, -173668.11, -138505.42, -187500.02, -185534.63, -187500.02, -187500.02, 0.000, 0.000, 0.000, 17:49:23.684
76, -187500.02, 65336.32, -173668.16, -138504.61, -187500.02, -185534.98, -187500.02, -187500.02, 0.000, 0.000, 0.000, 17:49:23.685
77, -187500.02, 65339.11, -173667.44, -138503.42, -187500.02, -185534.27, -187500.02, -187500.02, 0.000, 0.000, 0.000, 17:49:23.685
78, -187500.02, 65341.48, -173668.59, -138503.94, -187500.02, -185535.44, -187500.02, -187500.02, 0.000, 0.000, 0.000, 17:49:23.694
79, -187500.02, 65340.90, -173668.44, -138503.11, -187500.02, -185535.16, -187500.02, -187500.02, 0.000, 0.000, 0.000, 17:49:23.694
80, -187500.02, 65335.80, -173666.98, -138500.92, -187500.02, -185533.64, -187500.02, -187500.02, 0.000, 0.000, 0.000, 17:49:23.695
81, -187500.02, 65327.98, -173665.09, -138498.38, -187500.02, -185531.61, -187500.02, -187500.02, 0.000, 0.000, 0.000, 17:49:23.695
82, -187500.02, 65322.61, -173667.17, -138499.52, -187500.02, -185533.53, -187500.02, -187500.02, 0.000, 0.000, 0.000, 17:49:23.695
83, -187500.02, 65312.38, -173665.16, -138496.75, -187500.02, -185531.45, -187500.02, -187500.02, 0.000, 0.000, 0.000, 17:49:23.697
84, -187500.02, 65301.87, -173664.08, -138495.00, -187500.02, -185530.33, -187500.02, -187500.02, 0.000, 0.000, 0.000, 17:49:23.698
85, -187500.02, 65294.05, -173666.16, -138496.13, -187500.02, -185532.22, -187500.02, -187500.02, 0.000, 0.000, 0.000, 17:49:23.698
86, -187500.02, 65286.49, -173666.14, -138495.34, -187500.02, -185532.13, -187500.02, -187500.02, 0.000, 0.000, 0.000, 17:49:23.698
87, -187500.02, 65282.47, -173667.22, -138495.89, -187500.02, -185533.22, -187500.02, -187500.02, 0.000, 0.000, 0.000, 17:49:23.698
88, -187500.02, 65277.24, -173664.91, -138492.77, -187500.02, -185530.80, -187500.02, -187500.02, 0.000, 0.000, 0.000, 17:49:23.702
89, -187500.02, 65276.86, -173665.09, -138492.31, -187500.02, -185531.08, -187500.02, -187500.02, 0.000, 0.000, 0.000, 17:49:23.703
90, -187500.02, 65277.75, -173663.80, -138490.22, -187500.02, -185529.48, -187500.02, -187500.02, 0.000, 0.000, 0.000, 17:49:23.703
91, -187500.02, 65280.03, -173661.33, -138487.48, -187500.02, -185527.20, -187500.02, -187500.02, 0.000, 0.000, 0.000, 17:49:23.703
92, -187500.02, 65285.40, -173661.33, -138486.75, -187500.02, -185527.19, -187500.02, -187500.02, 0.000, 0.000, 0.000, 17:49:23.703
93, -187500.02, 65292.26, -173661.41, -138486.31, -187500.02, -185527.39, -187500.02, -187500.02, 0.000, 0.000, 0.000, 17:49:23.703
94, -187500.02, 65299.30, -173659.91, -138484.30, -187500.02, -185526.05, -187500.02, -187500.02, 0.000, 0.000, 0.000, 17:49:23.703
95, -187500.02, 65308.87, -173660.67, -138484.75, -187500.02, -185526.88, -187500.02, -187500.02, 0.000, 0.000, 0.000, 17:49:23.703
96, -187500.02, 65319.08, -173664.84, -138488.09, -187500.02, -185531.23, -187500.02, -187500.02, 0.000, 0.000, 0.000, 17:49:23.703
97, -187500.02, 65322.30, -173664.63, -138487.17, -187500.02, -185530.94, -187500.02, -187500.02, 0.000, 0.000, 0.000, 17:49:23.704
98, -187500.02, 65321.92, -173662.91, -138484.78, -187500.02, -185529.27, -187500.02, -187500.02, 0.000, 0.000, 0.000, 17:49:23.715
99, -187500.02, 65322.88, -173664.13, -138485.38, -187500.02, -185530.53, -187500.02, -187500.02, 0.000, 0.000, 0.000, 17:49:23.716
100, -187500.02, 65318.48, -173663.22, -138483.78, -187500.02, -185529.33, -187500.02, -187500.02, 0.000, 0.000, 0.000, 17:49:23.716
101, -187500.02, 65312.60, -173663.19, -138483.00, -187500.02, -185529.17, -187500.02, -187500.02, 0.000, 0.000, 0.000, 17:49:23.716
102, -187500.02, 65303.57, -173661.69, -138480.78, -187500.02, -185527.83, -187500.02, -187500.02, 0.000, 0.000, 0.000, 17:49:23.716
103, -187500.02, 65293.38, -173659.55, -138478.00, -187500.02, -185525.48, -187500.02, -187500.02, 0.000, 0.000, 0.000, 17:49:23.716
104, -187500.02, 65284.95, -173660.84, -138478.08, -187500.02, -185526.41, -187500.02, -187500.02, 0.000, 0.000, 0.000, 17:49:23.716
105, -187500.02, 65274.33, -173659.86, -138476.39, -187500.02, -185525.44, -187500.02, -187500.02, 0.000, 0.000, 0.000, 17:49:23.717
106, -187500.02, 65265.15, -173658.41, -138474.34, -187500.02, -185523.92, -187500.02, -187500.02, 0.000, 0.000, 0.000, 17:49:23.717
107, -187500.02, 65257.79, -173656.44, -138471.56, -187500.02, -185521.75, -187500.02, -187500.02, 0.000, 0.000, 0.000, 17:49:23.717
108, -187500.02, 65253.75, -173655.50, -138469.81, -187500.02, -185520.91, -187500.02, -187500.02, 0.000, 0.000, 0.000, 17:49:23.724
109, -187500.02, 65253.52, -173656.08, -138469.86, -187500.02, -185521.47, -187500.02, -187500.02, 0.000, 0.000, 0.000, 17:49:23.724
110, -187500.02, 65257.05, -173657.45, -138470.50, -187500.02, -185522.84, -187500.02, -187500.02, 0.000, 0.000, 0.000, 17:49:23.724
111, -187500.02, 65258.93, -173654.63, -138467.52, -187500.02, -185520.17, -187500.02, -187500.02, 0.000, 0.000, 0.000, 17:49:23.725
112, -187500.02, 65264.48, -173654.81, -138467.05, -187500.02, -185520.56, -187500.02, -187500.02, 0.000, 0.000, 0.000, 17:49:23.725
113, -187500.02, 65272.07, -173655.97, -138467.44, -187500.02, -185521.63, -187500.02, -187500.02, 0.000, 0.000, 0.000, 17:49:23.725
114, -187500.02, 65280.55, -173655.97, -138466.77, -187500.02, -185521.58, -187500.02, -187500.02, 0.000, 0.000, 0.000, 17:49:23.725
115, -187500.02, 65288.93, -173655.41, -138465.86, -187500.02, -185521.16, -187500.02, -187500.02, 0.000, 0.000, 0.000, 17:49:23.725
116, -187500.02, 65293.04, -173653.47, -138463.33, -187500.02, -185519.11, -187500.02, -187500.02, 0.000, 0.000, 0.000, 17:49:23.725
117, -187500.02, 65298.03, -173654.73, -138463.83, -187500.02, -185520.41, -187500.02, -187500.02, 0.000, 0.000, 0.000, 17:49:23.725
118, -187500.02, 65299.88, -173655.13, -138463.59, -187500.02, -185520.86, -187500.02, -187500.02, 0.000, 0.000, 0.000, 17:49:23.734
119, -187500.02, 65295.55, -173651.08, -138459.02, -187500.02, -185516.95, -187500.02, -187500.02, 0.000, 0.000, 0.000, 17:49:23.734
120, -187500.02, 65290.74, -173649.98, -138457.23, -187500.02, -185515.67, -187500.02, -187500.02, 0.000, 0.000, 0.000, 17:49:23.734
121, -187500.02, 65284.50, -173649.47, -138455.78, -187500.02, -185514.88, -187500.02, -187500.02, 0.000, 0.000, 0.000, 17:49:23.734
122, -187500.02, 65276.32, -173648.34, -138453.83, -187500.02, -185513.75, -187500.02, -187500.02, 0.000, 0.000, 0.000, 17:49:23.734
123, -187500.02, 65267.67, -173647.86, -138452.67, -187500.02, -185513.13, -187500.02, -187500.02, 0.000, 0.000, 0.000, 17:49:23.734
124, -187500.02, 65260.03, -173649.98, -138453.94, -187500.02, -185515.20, -187500.02, -187500.02, 0.000, 0.000, 0.000, 17:49:23.735
125, -187500.02, 65250.68, -173650.45, -138453.55, -187500.02, -185515.50, -187500.02, -187500.02, 0.000, 0.000, 0.000, 17:49:23.735
126, -187500.02, 65239.20, -173646.47, -138448.84, -187500.02, -185511.45, -187500.02, -187500.02, 0.000, 0.000, 0.000, 17:49:23.735
127, -187500.02, 65233.88, -173646.70, -138448.44, -187500.02, -185511.56, -187500.02, -187500.02, 0.000, 0.000, 0.000, 17:49:23.735
128, -187500.02, 65231.55, -173647.39, -138448.31, -187500.02, -185512.19, -187500.02, -187500.02, 0.000, 0.000, 0.000, 17:49:23.743
129, -187500.02, 65230.43, -173647.05, -138447.45, -187500.02, -185511.97, -187500.02, -187500.02, 0.000, 0.000, 0.000, 17:49:23.744
130, -187500.02, 65232.13, -173646.66, -138446.52, -187500.02, -185511.67, -187500.02, -187500.02, 0.000, 0.000, 0.000, 17:49:23.744
131, -187500.02, 65236.89, -173647.02, -138446.34, -187500.02, -185512.19, -187500.02, -187500.02, 0.000, 0.000, 0.000, 17:49:23.744
132, -187500.02, 65243.69, -173648.47, -138446.95, -187500.02, -185513.58, -187500.02, -187500.02, 0.000, 0.000, 0.000, 17:49:23.744
133, -187500.02, 65248.41, -173646.77, -138444.73, -187500.02, -185511.81, -187500.02, -187500.02, 0.000, 0.000, 0.000, 17:49:23.744
134, -187500.02, 65253.17, -173643.03, -138440.47, -187500.02, -185508.09, -187500.02, -187500.02, 0.000, 0.000, 0.000, 17:49:23.744
135, -187500.02, 65263.07, -173644.23, -138441.22, -187500.02, -185509.34, -187500.02, -187500.02, 0.000, 0.000, 0.000, 17:49:23.744
136, -187500.02, 65269.30, -173644.23, -138440.47, -187500.02, -185509.61, -187500.02, -187500.02, 0.000, 0.000, 0.000, 17:49:23.744
137, -187500.02, 65272.66, -173643.64, -138439.17, -187500.02, -185508.98, -187500.02, -187500.02, 0.000, 0.000, 0.000, 17:49:23.745
138, -187500.02, 65275.77, -173645.05, -138439.92, -187500.02, -185510.36, -187500.02, -187500.02, 0.000, 0.000, 0.000, 17:49:23.745
139, -187500.02, 65273.04, -173643.03, -138437.14, -187500.02, -185508.14, -187500.02, -187500.02, 0.000, 0.000, 0.000, 17:49:23.753
140, -187500.02, 65268.63, -173641.69, -138435.38, -187500.02, -185506.78, -187500.02, -187500.02, 0.000, 0.000, 0.000, 17:49:23.753
141, -187500.02, 65262.80, -173641.39, -138434.55, -187500.02, -185506.52, -187500.02, -187500.02, 0.000, 0.000, 0.000, 17:49:23.753
142, -187500.02, 65256.05, -173642.06, -138434.50, -187500.02, -185507.20, -187500.02, -187500.02, 0.000, 0.000, 0.000, 17:49:23.753
143, -187500.02, 65247.33, -173641.80, -138433.11, -187500.02, -185506.67, -187500.02, -187500.02, 0.000, 0.000, 0.000, 17:49:23.753
144, -187500.02, 65237.09, -173641.02, -138431.59, -187500.02, -185505.86, -187500.02, -187500.02, 0.000, 0.000, 0.000, 17:49:23.753
145, -187500.02, 65228.36, -173642.06, -138431.92, -187500.02, -185506.86, -187500.02, -187500.02, 0.000, 0.000, 0.000, 17:49:23.753
146, -187500.02, 65221.74, -173643.45, -138432.33, -187500.02, -185507.89, -187500.02, -187500.02, 0.000, 0.000, 0.000, 17:49:23.754
147, -187500.02, 65215.39, -173642.81, -138430.86, -187500.02, -185507.25, -187500.02, -187500.02, 0.000, 0.000, 0.000, 17:49:23.754
148, -187500.02, 65209.83, -173640.28, -138427.97, -187500.02, -185504.86, -187500.02, -187500.02, 0.000, 0.000, 0.000, 17:49:23.754
149, -187500.02, 65210.00, -173641.44, -138428.42, -187500.02, -185505.80, -187500.02, -187500.02, 0.000, 0.000, 0.000, 17:49:23.764
150, -187500.02, 65211.39, -173641.11, -138427.30, -187500.02, -185505.41, -187500.02, -187500.02, 0.000, 0.000, 0.000, 17:49:23.764
151, -187500.02, 65212.64, -173638.02, -138423.59, -187500.02, -185502.53, -187500.02, -187500.02, 0.000, 0.000, 0.000, 17:49:23.764
152, -187500.02, 65218.16, -173638.20, -138422.94, -187500.02, -185502.63, -187500.02, -187500.02, 0.000, 0.000, 0.000, 17:49:23.764
153, -187500.02, 65222.14, -173636.03, -138420.33, -187500.02, -185500.42, -187500.02, -187500.02, 0.000, 0.000, 0.000, 17:49:23.764
154, -187500.02, 65231.02, -173636.69, -138420.73, -187500.02, -185501.34, -187500.02, -187500.02, 0.000, 0.000, 0.000, 17:49:23.764
155, -187500.02, 65241.07, -173637.98, -138421.36, -187500.02, -185502.94, -187500.02, -187500.02, 0.000, 0.000, 0.000, 17:49:23.764
156, -187500.02, 65246.75, -173637.38, -138420.13, -187500.02, -185502.17, -187500.02, -187500.02, 0.000, 0.000, 0.000, 17:49:23.765
157, -187500.02, 65252.03, -173638.69, -138420.95, -187500.02, -185503.56, -187500.02, -187500.02, 0.000, 0.000, 0.000, 17:49:23.765
158, -187500.02, 65252.65, -173637.67, -138419.31, -187500.02, -185502.50, -187500.02, -187500.02, 0.000, 0.000, 0.000, 17:49:23.765
159, -187500.02, 65250.42, -173635.75, -138416.70, -187500.02, -185500.67, -187500.02, -187500.02, 0.000, 0.000, 0.000, 17:49:23.773
160, -187500.02, 65246.95, -173635.92, -138416.09, -187500.02, -185500.73, -187500.02, -187500.02, 0.000, 0.000, 0.000, 17:49:23.774
161, -187500.02, 65239.62, -173634.17, -138413.89, -187500.02, -185498.73, -187500.02, -187500.02, 0.000, 0.000, 0.000, 17:49:23.774
162, -187500.02, 65233.50, -173635.31, -138414.17, -187500.02, -185499.88, -187500.02, -187500.02, 0.000, 0.000, 0.000, 17:49:23.774
163, -187500.02, 65225.14, -173635.28, -138412.97, -187500.02, -185499.63, -187500.02, -187500.02, 0.000, 0.000, 0.000, 17:49:23.774
164, -187500.02, 65212.93, -173632.77, -138409.81, -187500.02, -185497.17, -187500.02, -187500.02, 0.000, 0.000, 0.000, 17:49:23.774
165, -187500.02, 65203.23, -173633.03, -138409.47, -187500.02, -185497.30, -187500.02, -187500.02, 0.000, 0.000, 0.000, 17:49:23.774
166, -187500.02, 65195.81, -173633.73, -138409.27, -187500.02, -185497.83, -187500.02, -187500.02, 0.000, 0.000, 0.000, 17:49:23.774
167, -187500.02, 65189.02, -173633.02, -138407.78, -187500.02, -185496.94, -187500.02, -187500.02, 0.000, 0.000, 0.000, 17:49:23.775
168, -187500.02, 65185.62, -173632.72, -138406.84, -187500.02, -185496.70, -187500.02, -187500.02, 0.000, 0.000, 0.000, 17:49:23.775
169, -187500.02, 65183.21, -173631.58, -138405.03, -187500.02, -185495.47, -187500.02, -187500.02, 0.000, 0.000, 0.000, 17:49:23.788
170, -187500.02, 65183.96, -173630.95, -138403.77, -187500.02, -185494.81, -187500.02, -187500.02, 0.000, 0.000, 0.000, 17:49:23.789
171, -187500.02, 65186.74, -173629.53, -138401.77, -187500.02, -185493.45, -187500.02, -187500.02, 0.000, 0.000, 0.000, 17:49:23.789
172, -187500.02, 65191.23, -173628.80, -138400.56, -187500.02, -185492.81, -187500.02, -187500.02, 0.000, 0.000, 0.000, 17:49:23.789
173, -187500.02, 65198.49, -173630.06, -138401.27, -187500.02, -185494.28, -187500.02, -187500.02, 0.000, 0.000, 0.000, 17:49:23.789
174, -187500.02, 65208.86, -173632.39, -138402.91, -187500.02, -185496.58, -187500.02, -187500.02, 0.000, 0.000, 0.000, 17:49:23.790
175, -187500.02, 65217.29, -173632.23, -138402.28, -187500.02, -185496.50, -187500.02, -187500.02, 0.000, 0.000, 0.000, 17:49:23.790
176, -187500.02, 65222.54, -173631.00, -138400.34, -187500.02, -185495.36, -187500.02, -187500.02, 0.000, 0.000, 0.000, 17:49:23.790
177, -187500.02, 65224.55, -173629.28, -138397.80, -187500.02, -185493.52, -187500.02, -187500.02, 0.000, 0.000, 0.000, 17:49:23.791
178, -187500.02, 65223.02, -173626.05, -138394.02, -187500.02, -185490.14, -187500.02, -187500.02, 0.000, 0.000, 0.000, 17:49:23.791
179, -187500.02, 65223.46, -173626.64, -138394.17, -187500.02, -185490.75, -187500.02, -187500.02, 0.000, 0.000, 0.000, 17:49:23.797
180, -187500.02, 65219.17, -173625.80, -138392.63, -187500.02, -185490.03, -187500.02, -187500.02, 0.000, 0.000, 0.000, 17:49:23.798
181, -187500.02, 65214.65, -173626.98, -138392.97, -187500.02, -185491.16, -187500.02, -187500.02, 0.000, 0.000, 0.000, 17:49:23.798
182, -187500.02, 65209.69, -173629.33, -138394.53, -187500.02, -185493.39, -187500.02, -187500.02, 0.000, 0.000, 0.000, 17:49:23.798
183, -187500.02, 65201.00, -173628.81, -138393.14, -187500.02, -185492.72, -187500.02, -187500.02, 0.000, 0.000, 0.000, 17:49:23.798
184, -187500.02, 65190.63, -173628.02, -138391.56, -187500.02, -185491.75, -187500.02, -187500.02, 0.000, 0.000, 0.000, 17:49:23.798
185, -187500.02, 65178.78, -173626.41, -138389.13, -187500.02, -185490.11, -187500.02, -187500.02, 0.000, 0.000, 0.000, 17:49:23.799
186, -187500.02, 65168.95, -173624.91, -138386.95, -187500.02, -185488.42, -187500.02, -187500.02, 0.000, 0.000, 0.000, 17:49:23.799
187, -187500.02, 65163.76, -173625.86, -138387.13, -187500.02, -185489.13, -187500.02, -187500.02, 0.000, 0.000, 0.000, 17:49:23.799
188, -187500.02, 65159.91, -173625.42, -138385.95, -187500.02, -185488.72, -187500.02, -187500.02, 0.000, 0.000, 0.000, 17:49:23.799
189, -187500.02, 65157.93, -173624.64, -138384.36, -187500.02, -185488.05, -187500.02, -187500.02, 0.000, 0.000, 0.000, 17:49:23.805
190, -187500.02, 65159.00, -173624.34, -138383.38, -187500.02, -185487.44, -187500.02, -187500.02, 0.000, 0.000, 0.000, 17:49:23.805
191, -187500.02, 65162.75, -173624.13, -138382.58, -187500.02, -185487.22, -187500.02, -187500.02, 0.000, 0.000, 0.000, 17:49:23.805
192, -187500.02, 65166.78, -173622.88, -138380.70, -187500.02, -185486.06, -187500.02, -187500.02, 0.000, 0.000, 0.000, 17:49:23.805
193, -187500.02, 65173.35, -173623.47, -138380.58, -187500.02, -185486.77, -187500.02, -187500.02, 0.000, 0.000, 0.000, 17:49:23.806
194, -187500.02, 65180.23, -173622.56, -138379.13, -187500.02, -185485.94, -187500.02, -187500.02, 0.000, 0.000, 0.000, 17:49:23.806
195, -187500.02, 65189.64, -173623.11, -138379.25, -187500.02, -185486.66, -187500.02, -187500.02, 0.000, 0.000, 0.000, 17:49:23.806
196, -187500.02, 65196.59, -173623.14, -138378.84, -187500.02, -185486.70, -187500.02, -187500.02, 0.000, 0.000, 0.000, 17:49:23.806
197, -187500.02, 65199.14, -173621.45, -138376.53, -187500.02, -185484.97, -187500.02, -187500.02, 0.000, 0.000, 0.000, 17:49:23.806
198, -187500.02, 65197.36, -173617.89, -138372.41, -187500.02, -185481.52, -187500.02, -187500.02, 0.000, 0.000, 0.000, 17:49:23.806
199, -187500.02, 65195.97, -173617.03, -138370.86, -187500.02, -185480.78, -187500.02, -187500.02, 0.000, 0.000, 0.000, 17:49:23.814
200, -187500.02, 65193.24, -173617.64, -138370.73, -187500.02, -185481.16, -187500.02, -187500.02, 0.000, 0.000, 0.000, 17:49:23.814
201, -187500.02, 65188.44, -173618.47, -138370.80, -187500.02, -185481.91, -187500.02, -187500.02, 0.000, 0.000, 0.000, 17:49:23.815
202, -187500.02, 65184.59, -173621.55, -138373.19, -187500.02, -185484.83, -187500.02, -187500.02, 0.000, 0.000, 0.000, 17:49:23.815
203, -187500.02, 65176.59, -173621.86, -138372.61, -187500.02, -185485.25, -187500.02, -187500.02, 0.000, 0.000, 0.000, 17:49:23.815
204, -187500.02, 65163.40, -173617.77, -138367.70, -187500.02, -185481.08, -187500.02, -187500.02, 0.000, 0.000, 0.000, 17:49:23.815
205, -187500.02, 65152.18, -173616.81, -138366.22, -187500.02, -185479.91, -187500.02, -187500.02, 0.000, 0.000, 0.000, 17:49:23.815
206, -187500.02, 65144.00, -173616.98, -138365.50, -187500.02, -185480.00, -187500.02, -187500.02, 0.000, 0.000, 0.000, 17:49:23.815
207, -187500.02, 65138.88, -173618.00, -138365.77, -187500.02, -185480.89, -187500.02, -187500.02, 0.000, 0.000, 0.000, 17:49:23.815
208, -187500.02, 65133.74, -173616.44, -138363.39, -187500.02, -185479.22, -187500.02, -187500.02, 0.000, 0.000, 0.000, 17:49:23.815
209, -187500.02, 65131.62, -173615.88, -138362.13, -187500.02, -185478.50, -187500.02, -187500.02, 0.000, 0.000, 0.000, 17:49:23.825
210, -187500.02, 65134.01, -173616.56, -138362.41, -187500.02, -185479.19, -187500.02, -187500.02, 0.000, 0.000, 0.000, 17:49:23.826
211, -187500.02, 65137.63, -173615.98, -138361.23, -187500.02, -185478.80, -187500.02, -187500.02, 0.000, 0.000, 0.000, 17:49:23.826
212, -187500.02, 65141.74, -173614.94, -138359.55, -187500.02, -185477.72, -187500.02, -187500.02, 0.000, 0.000, 0.000, 17:49:23.826
213, -187500.02, 65145.83, -173613.22, -138357.22, -187500.02, -185476.16, -187500.02, -187500.02, 0.000, 0.000, 0.000, 17:49:23.826
214, -187500.02, 65152.89, -173612.19, -138355.81, -187500.02, -185475.23, -187500.02, -187500.02, 0.000, 0.000, 0.000, 17:49:23.826
215, -187500.02, 65162.69, -173612.94, -138356.11, -187500.02, -185476.00, -187500.02, -187500.02, 0.000, 0.000, 0.000, 17:49:23.826
216, -187500.02, 65168.50, -173612.13, -138354.52, -187500.02, -185475.19, -187500.02, -187500.02, 0.000, 0.000, 0.000, 17:49:23.827
217, -187500.02, 65173.75, -173613.17, -138354.83, -187500.02, -185476.38, -187500.02, -187500.02, 0.000, 0.000, 0.000, 17:49:23.827
218, -187500.02, 65176.16, -173613.48, -138354.59, -187500.02, -185476.63, -187500.02, -187500.02, 0.000, 0.000, 0.000, 17:49:23.827
219, -187500.02, 65176.43, -173613.97, -138354.44, -187500.02, -185477.23, -187500.02, -187500.02, 0.000, 0.000, 0.000, 17:49:23.835
220, -187500.02, 65171.67, -173612.34, -138352.08, -187500.02, -185475.63, -187500.02, -187500.02, 0.000, 0.000, 0.000, 17:49:23.835
221, -187500.02, 65166.64, -173612.97, -138351.77, -187500.02, -185475.97, -187500.02, -187500.02, 0.000, 0.000, 0.000, 17:49:23.836
222, -187500.02, 65157.41, -173610.67, -138348.75, -187500.02, -185473.41, -187500.02, -187500.02, 0.000, 0.000, 0.000, 17:49:23.836
223, -187500.02, 65149.43, -173610.52, -138347.73, -187500.02, -185473.06, -187500.02, -187500.02, 0.000, 0.000, 0.000, 17:49:23.836
224, -187500.02, 65141.72, -173612.09, -138348.44, -187500.02, -185474.77, -187500.02, -187500.02, 0.000, 0.000, 0.000, 17:49:23.836
225, -187500.02, 65131.10, -173611.69, -138347.44, -187500.02, -185474.25, -187500.02, -187500.02, 0.000, 0.000, 0.000, 17:49:23.836
226, -187500.02, 65120.53, -173609.55, -138344.58, -187500.02, -185471.91, -187500.02, -187500.02, 0.000, 0.000, 0.000, 17:49:23.836
227, -187500.02, 65113.40, -173608.72, -138342.91, -187500.02, -185470.77, -187500.02, -187500.02, 0.000, 0.000, 0.000, 17:49:23.836
228, -187500.02, 65108.82, -173607.80, -138341.09, -187500.02, -185469.77, -187500.02, -187500.02, 0.000, 0.000, 0.000, 17:49:23.836
229, -187500.02, 65105.60, -173605.66, -138338.41, -187500.02, -185467.92, -187500.02, -187500.02, 0.000, 0.000, 0.000, 17:49:23.844
230, -187500.02, 65107.46, -173606.34, -138338.41, -187500.02, -185468.59, -187500.02, -187500.02, 0.000, 0.000, 0.000, 17:49:23.844
231, -187500.02, 65110.36, -173605.50, -138337.20, -187500.02, -185467.95, -187500.02, -187500.02, 0.000, 0.000, 0.000, 17:49:23.844
232, -187500.02, 65116.64, -173606.50, -138337.69, -187500.02, -185469.00, -187500.02, -187500.02, 0.000, 0.000, 0.000, 17:49:23.844
233, -187500.02, 65124.58, -173608.58, -138339.05, -187500.02, -185471.11, -187500.02, -187500.02, 0.000, 0.000, 0.000, 17:49:23.844
234, -187500.02, 65132.29, -173608.41, -138338.55, -187500.02, -185471.02, -187500.02, -187500.02, 0.000, 0.000, 0.000, 17:49:23.844
235, -187500.02, 65140.94, -173608.31, -138337.69, -187500.02, -185470.88, -187500.02, -187500.02, 0.000, 0.000, 0.000, 17:49:23.845
236, -187500.02, 65145.63, -173606.02, -138334.66, -187500.02, -185468.33, -187500.02, -187500.02, 0.000, 0.000, 0.000, 17:49:23.845
237, -187500.02, 65151.11, -173607.16, -138335.09, -187500.02, -185469.61, -187500.02, -187500.02, 0.000, 0.000, 0.000, 17:49:23.845
238, -187500.02, 65153.30, -173607.31, -138334.67, -187500.02, -185469.83, -187500.02, -187500.02, 0.000, 0.000, 0.000, 17:49:23.845
239, -187500.02, 65151.55, -173605.55, -138332.42, -187500.02, -185468.31, -187500.02, -187500.02, 0.000, 0.000, 0.000, 17:49:23.856
240, -187500.02, 65146.57, -173603.48, -138329.72, -187500.02, -185466.25, -187500.02, -187500.02, 0.000, 0.000, 0.000, 17:49:23.857
241, -187500.02, 65141.56, -173604.05, -138329.36, -187500.02, -185466.63, -187500.02, -187500.02, 0.000, 0.000, 0.000, 17:49:23.857
242, -187500.02, 65133.36, -173602.47, -138327.25, -187500.02, -185464.89, -187500.02, -187500.02, 0.000, 0.000, 0.000, 17:49:23.857
243, -187500.02, 65126.34, -173603.53, -138327.25, -187500.02, -185465.72, -187500.02, -187500.02, 0.000, 0.000, 0.000, 17:49:23.857
244, -187500.02, 65119.84, -173606.27, -138329.16, -187500.02, -185468.27, -187500.02, -187500.02, 0.000, 0.000, 0.000, 17:49:23.857
245, -187500.02, 65110.05, -173606.63, -138328.64, -187500.02, -185468.53, -187500.02, -187500.02, 0.000, 0.000, 0.000, 17:49:23.858
246, -187500.02, 65098.07, -173603.13, -138324.56, -187500.02, -185465.06, -187500.02, -187500.02, 0.000, 0.000, 0.000, 17:49:23.858
247, -187500.02, 65088.79, -173600.45, -138321.22, -187500.02, -185462.31, -187500.02, -187500.02, 0.000, 0.000, 0.000, 17:49:23.858
248, -187500.02, 65085.46, -173600.72, -138320.75, -187500.02, -185462.63, -187500.02, -187500.02, 0.000, 0.000, 0.000, 17:49:23.858
249, -187500.02, 65080.81, -173597.52, -138316.86, -187500.02, -185459.22, -187500.02, -187500.02, 0.000, 0.000, 0.000, 17:49:23.864
250, -187500.02, 65083.09, -173598.39, -138317.33, -187500.02, -185460.28, -187500.02, -187500.02, 0.000, 0.000, 0.000, 17:49:23.864
251, -187500.02, 65085.95, -173597.61, -138315.88, -187500.02, -185459.56, -187500.02, -187500.02, 0.000, 0.000, 0.000, 17:49:23.864
252, -187500.02, 65088.81, -173595.17, -138312.97, -187500.02, -185457.05, -187500.02, -187500.02, 0.000, 0.000, 0.000, 17:49:23.864
253, -187500.02, 65096.14, -173596.88, -138313.86, -187500.02, -185458.59, -187500.02, -187500.02, 0.000, 0.000, 0.000, 17:49:23.864
254, -187500.02, 65104.41, -173597.33, -138313.69, -187500.02, -185458.98, -187500.02, -187500.02, 0.000, 0.000, 0.000, 17:49:23.864
255, -187500.02, 65112.08, -173595.88, -138311.77, -187500.02, -185457.98, -187500.02, -187500.02, 0.000, 0.000, 0.000, 17:49:23.864
0, -187500.02, 65119.39, -173596.14, -138311.41, -187500.02, -185458.16, -187500.02, -187500.02, 0.000, 0.000, 0.000, 17:49:23.864
1, -187500.02, 65122.14, -173593.97, -138308.88, -187500.02, -185455.91, -187500.02, -187500.02, 0.000, 0.000, 0.000, 17:49:23.864
2, -187500.02, 65125.96, -173595.72, -138310.02, -187500.02, -185457.88, -187500.02, -187500.02, 0.000, 0.000, 0.000, 17:49:23.865
3, -187500.02, 65125.96, -173595.91, -138309.50, -187500.02, -185458.09, -187500.02, -187500.02, 0.000, 0.000, 0.000, 17:49:23.875
4, -187500.02, 65121.67, -173594.44, -138307.20, -187500.02, -185456.42, -187500.02, -187500.02, 0.000, 0.000, 0.000, 17:49:23.875
5, -187500.02, 65116.57, -173594.73, -138306.75, -187500.02, -185456.53, -187500.02, -187500.02, 0.000, 0.000, 0.000, 17:49:23.875
6, -187500.02, 65108.35, -173592.89, -138304.36, -187500.02, -185454.73, -187500.02, -187500.02, 0.000, 0.000, 0.000, 17:49:23.875
7, -187500.02, 65099.14, -173591.89, -138302.27, -187500.02, -185453.64, -187500.02, -187500.02, 0.000, 0.000, 0.000, 17:49:23.876
8, -187500.02, 65090.42, -173592.45, -138302.08, -187500.02, -185454.19, -187500.02, -187500.02, 0.000, 0.000, 0.000, 17:49:23.876
9, -187500.02, 65078.93, -173591.23, -138300.14, -187500.02, -185452.78, -187500.02, -187500.02, 0.000, 0.000, 0.000, 17:49:23.876
10, -187500.02, 65069.19, -173590.17, -138298.16, -187500.02, -185451.39, -187500.02, -187500.02, 0.000, 0.000, 0.000, 17:49:23.876
11, -187500.02, 65062.15, -173589.31, -138296.63, -187500.02, -185450.56, -187500.02, -187500.02, 0.000, 0.000, 0.000, 17:49:23.876
12, -187500.02, 65056.20, -173587.23, -138293.61, -187500.02, -185448.53, -187500.02, -187500.02, 0.000, 0.000, 0.000, 17:49:23.876
13, -187500.02, 65056.18, -173588.41, -138294.47, -187500.02, -185449.80, -187500.02, -187500.02, 0.000, 0.000, 0.000, 17:49:23.884
14, -187500.02, 65057.25, -173588.64, -138294.02, -187500.02, -185449.88, -187500.02, -187500.02, 0.000, 0.000, 0.000, 17:49:23.884
15, -187500.02, 65059.51, -173587.08, -138291.89, -187500.02, -185448.42, -187500.02, -187500.02, 0.000, 0.000, 0.000, 17:49:23.884
16, -187500.02, 65064.20, -173586.48, -138290.73, -187500.02, -185447.67, -187500.02, -187500.02, 0.000, 0.000, 0.000, 17:49:23.885
17, -187500.02, 65070.22, -173586.97, -138290.39, -187500.02, -185448.14, -187500.02, -187500.02, 0.000, 0.000, 0.000, 17:49:23.885
18, -187500.02, 65076.74, -173585.92, -138288.72, -187500.02, -185447.25, -187500.02, -187500.02, 0.000, 0.000, 0.000, 17:49:23.885
19, -187500.02, 65084.34, -173584.45, -138286.70, -187500.02, -185446.00, -187500.02, -187500.02, 0.000, 0.000, 0.000, 17:49:23.885
20, -187500.02, 65092.34, -173585.14, -138286.86, -187500.02, -185446.73, -187500.02, -187500.02, 0.000, 0.000, 0.000, 17:49:23.885
21, -187500.02, 65097.80, -173585.56, -138286.91, -187500.02, -185447.20, -187500.02, -187500.02, 0.000, 0.000, 0.000, 17:49:23.885
22, -187500.02, 65098.67, -173584.30, -138284.92, -187500.02, -185446.09, -187500.02, -187500.02, 0.000, 0.000, 0.000, 17:49:23.885
23, -187500.02, 65097.84, -173583.38, -138283.47, -187500.02, -185445.08, -187500.02, -187500.02, 0.000, 0.000, 0.000, 17:49:23.896
24, -187500.02, 65096.01, -173584.47, -138283.73, -187500.02, -185446.09, -187500.02, -187500.02, 0.000, 0.000, 0.000, 17:49:23.896
25, -187500.02, 65090.25, -173584.02, -138282.61, -187500.02, -185445.67, -187500.02, -187500.02, 0.000, 0.000, 0.000, 17:49:23.896
26, -187500.02, 65080.34, -173580.78, -138278.75, -187500.02, -185442.36, -187500.02, -187500.02, 0.000, 0.000, 0.000, 17:49:23.897
27, -187500.02, 65073.93, -173582.45, -138279.42, -187500.02, -185443.83, -187500.02, -187500.02, 0.000, 0.000, 0.000, 17:49:23.897
28, -187500.02, 65065.55, -173583.11, -138279.11, -187500.02, -185444.23, -187500.02, -187500.02, 0.000, 0.000, 0.000, 17:49:23.897
29, -187500.02, 65054.37, -173582.14, -138277.41, -187500.02, -185443.28, -187500.02, -187500.02, 0.000, 0.000, 0.000, 17:49:23.897
30, -187500.02, 65045.99, -173582.50, -138276.84, -187500.02, -185443.52, -187500.02, -187500.02, 0.000, 0.000, 0.000, 17:49:23.897
31, -187500.02, 65039.28, -173582.34, -138275.94, -187500.02, -185443.23, -187500.02, -187500.02, 0.000, 0.000, 0.000, 17:49:23.897
32, -187500.02, 65034.99, -173581.72, -138274.61, -187500.02, -185442.61, -187500.02, -187500.02, 0.000, 0.000, 0.000, 17:49:23.897
33, -187500.02, 65032.91, -173581.31, -138273.52, -187500.02, -185442.06, -187500.02, -187500.02, 0.000, 0.000, 0.000, 17:49:23.897
34, -187500.02, 65035.44, -173582.92, -138274.44, -187500.02, -185443.64, -187500.02, -187500.02, 0.000, 0.000, 0.000, 17:49:23.906
35, -187500.02, 65040.47, -173584.53, -138275.52, -187500.02, -185445.22, -187500.02, -187500.02, 0.000, 0.000, 0.000, 17:49:23.907
36, -187500.02, 65042.41, -173580.88, -138271.58, -187500.02, -185441.73, -187500.02, -187500.02, 0.000, 0.000, 0.000, 17:49:23.907
37, -187500.02, 65047.80, -173580.67, -138270.69, -187500.02, -185441.63, -187500.02, -187500.02, 0.000, 0.000, 0.000, 17:49:23.907
38, -187500.02, 65056.89, -173582.39, -138271.55, -187500.02, -185443.25, -187500.02, -187500.02, 0.000, 0.000, 0.000, 17:49:23.907
39, -187500.02, 65064.20, -173580.78, -138269.56, -187500.02, -185441.89, -187500.02, -187500.02, 0.000, 0.000, 0.000, 17:49:23.907
40, -187500.02, 65072.07, -173581.09, -138269.20, -187500.02, -185442.27, -187500.02, -187500.02, 0.000, 0.000, 0.000, 17:49:23.907
41, -187500.02, 65075.25, -173578.88, -138266.81, -187500.02, -185440.28, -187500.02, -187500.02, 0.000, 0.000, 0.000, 17:49:23.907
42, -187500.02, 65078.00, -173579.34, -138266.50, -187500.02, -185440.66, -187500.02, -187500.02, 0.000, 0.000, 0.000, 17:49:23.907
43, -187500.02, 65076.54, -173577.83, -138264.25, -187500.02, -185439.03, -187500.02, -187500.02, 0.000, 0.000, 0.000, 17:49:23.907
44, -187500.02, 65076.12, -173579.86, -138265.50, -187500.02, -185441.00, -187500.02, -187500.02, 0.000, 0.000, 0.000, 17:49:23.917
45, -187500.02, 65071.04, -173580.00, -138264.84, -187500.02, -185441.00, -187500.02, -187500.02, 0.000, 0.000, 0.000, 17:49:23.918
46, -187500.02, 65061.97, -173577.52, -138261.81, -187500.02, -185438.31, -187500.02, -187500.02, 0.000, 0.000, 0.000, 17:49:23.918
47, -187500.02, 65055.02, -173578.19, -138261.69, -187500.02, -185439.03, -187500.02, -187500.02, 0.000, 0.000, 0.000, 17:49:23.918
48, -187500.02, 65043.42, -173575.69, -138258.36, -187500.02, -185436.45, -187500.02, -187500.02, 0.000, 0.000, 0.000, 17:49:23.918
49, -187500.02, 65031.59, -173574.23, -138256.08, -187500.02, -185434.72, -187500.02, -187500.02, 0.000, 0.000, 0.000, 17:49:23.918
50, -187500.02, 65021.80, -173573.16, -138254.25, -187500.02, -185433.50, -187500.02, -187500.02, 0.000, 0.000, 0.000, 17:49:23.918
51, -187500.02, 65017.29, -173575.42, -138255.86, -187500.02, -185435.86, -187500.02, -187500.02, 0.000, 0.000, 0.000, 17:49:23.918
52, -187500.02, 65013.94, -173576.09, -138255.44, -187500.02, -185436.39, -187500.02, -187500.02, 0.000, 0.000, 0.000, 17:49:23.919
53, -187500.02, 65011.68, -173575.42, -138254.23, -187500.02, -185435.67, -187500.02, -187500.02, 0.000, 0.000, 0.000, 17:49:23.919
54, -187500.02, 65011.57, -173574.34, -138252.73, -187500.02, -185434.88, -187500.02, -187500.02, 0.000, 0.000, 0.000, 17:49:23.927
55, -187500.02, 65015.72, -173574.95, -138252.52, -187500.02, -185435.45, -187500.02, -187500.02, 0.000, 0.000, 0.000, 17:49:23.928
56, -187500.02, 65018.45, -173572.39, -138249.56, -187500.02, -185432.75, -187500.02, -187500.02, 0.000, 0.000, 0.000, 17:49:23.928
57, -187500.02, 65023.93, -173572.17, -138248.66, -187500.02, -185432.44, -187500.02, -187500.02, 0.000, 0.000, 0.000, 17:49:23.928
58, -187500.02, 65029.54, -173570.30, -138246.20, -187500.02, -185430.77, -187500.02, -187500.02, 0.000, 0.000, 0.000, 17:49:23.928
59, -187500.02, 65041.12, -173572.80, -138248.03, -187500.02, -185433.47, -187500.02, -187500.02, 0.000, 0.000, 0.000, 17:49:23.928
60, -187500.02, 65049.05, -173573.31, -138248.17, -187500.02, -185434.30, -187500.02, -187500.02, 0.000, 0.000, 0.000, 17:49:23.928
61, -187500.02, 65055.27, -173574.39, -138248.75, -187500.02, -185435.23, -187500.02, -187500.02, 0.000, 0.000, 0.000, 17:49:23.928
62, -187500.02, 65059.24, -173575.95, -138249.56, -187500.02, -185436.59, -187500.02, -187500.02, 0.000, 0.000, 0.000, 17:49:23.928
63, -187500.02, 65057.41, -173573.92, -138246.78, -187500.02, -185434.52, -187500.02, -187500.02, 0.000, 0.000, 0.000, 17:49:23.929
64, -187500.02, 65054.06, -173572.73, -138244.95, -187500.02, -185433.55, -187500.02, -187500.02, 0.000, 0.000, 0.000, 17:49:23.939
65, -187500.02, 65050.30, -173574.13, -138245.47, -187500.02, -185434.67, -187500.02, -187500.02, 0.000, 0.000, 0.000, 17:49:23.939
66, -187500.02, 65041.14, -173571.28, -138242.05, -187500.02, -185431.73, -187500.02, -187500.02, 0.000, 0.000, 0.000, 17:49:23.940
67, -187500.02, 65031.37, -173568.80, -138239.08, -187500.02, -185429.17, -187500.02, -187500.02, 0.000, 0.000, 0.000, 17:49:23.940
68, -187500.02, 65025.20, -173571.97, -138241.05, -187500.02, -185432.30, -187500.02, -187500.02, 0.000, 0.000, 0.000, 17:49:23.940
69, -187500.02, 65013.49, -173570.56, -138239.03, -187500.02, -185430.80, -187500.02, -187500.02, 0.000, 0.000, 0.000, 17:49:23.940
70, -187500.02, 65002.78, -173568.86, -138236.50, -187500.02, -185428.80, -187500.02, -187500.02, 0.000, 0.000, 0.000, 17:49:23.940
71, -187500.02, 64994.76, -173567.69, -138234.52, -187500.02, -185427.58, -187500.02, -187500.02, 0.000, 0.000, 0.000, 17:49:23.940
72, -187500.02, 64992.57, -173569.61, -138235.63, -187500.02, -185429.48, -187500.02, -187500.02, 0.000, 0.000, 0.000, 17:49:23.940
73, -187500.02, 64989.89, -173568.38, -138233.78, -187500.02, -185428.33, -187500.02, -187500.02, 0.000, 0.000, 0.000, 17:49:23.940
74, -187500.02, 64988.25, -173566.23, -138230.88, -187500.02, -185425.94, -187500.02, -187500.02, 0.000, 0.000, 0.000, 17:49:23.944
75, -187500.02, 64992.37, -173567.03, -138231.19, -187500.02, -185426.75, -187500.02, -187500.02, 0.000, 0.000, 0.000, 17:49:23.944
76, -187500.02, 64998.31, -173567.69, -138231.39, -187500.02, -185427.58, -187500.02, -187500.02, 0.000, 0.000, 0.000, 17:49:23.944
77, -187500.02, 65005.11, -173568.70, -138231.81, -187500.02, -185428.70, -187500.02, -187500.02, 0.000, 0.000, 0.000, 17:49:23.944
78, -187500.02, 65012.41, -173568.70, -138231.00, -187500.02, -185428.59, -187500.02, -187500.02, 0.000, 0.000, 0.000, 17:49:23.945
79, -187500.02, 65018.94, -173566.30, -138228.13, -187500.02, -185426.25, -187500.02, -187500.02, 0.000, 0.000, 0.000, 17:49:23.945
80, -187500.02, 65026.43, -173566.14, -138227.47, -187500.02, -185426.28, -187500.02, -187500.02, 0.000, 0.000, 0.000, 17:49:23.945
81, -187500.02, 65033.98, -173568.31, -138229.02, -187500.02, -185428.48, -187500.02, -187500.02, 0.000, 0.000, 0.000, 17:49:23.945
82, -187500.02, 65037.56, -173569.25, -138229.33, -187500.02, -185429.38, -187500.02, -187500.02, 0.000, 0.000, 0.000, 17:49:23.945
83, -187500.02, 65036.38, -173567.61, -138226.95, -187500.02, -185427.94, -187500.02, -187500.02, 0.000, 0.000, 0.000, 17:49:23.945
84, -187500.02, 65031.44, -173564.89, -138223.61, -187500.02, -185425.23, -187500.02, -187500.02, 0.000, 0.000, 0.000, 17:49:23.958
85, -187500.02, 65023.14, -173561.31, -138219.52, -187500.02, -185421.38, -187500.02, -187500.02, 0.000, 0.000, 0.000, 17:49:23.958
86, -187500.02, 65017.22, -173562.05, -138219.56, -187500.02, -185421.97, -187500.02, -187500.02, 0.000, 0.000, 0.000, 17:49:23.959
87, -187500.02, 65010.11, -173562.66, -138219.42, -187500.02, -185422.56, -187500.02, -187500.02, 0.000, 0.000, 0.000, 17:49:23.959
88, -187500.02, 65000.30, -173561.95, -138217.80, -187500.02, -185421.58, -187500.02, -187500.02, 0.000, 0.000, 0.000, 17:49:23.959
89, -187500.02, 64990.85, -173562.78, -138217.59, -187500.02, -185422.28, -187500.02, -187500.02, 0.000, 0.000, 0.000, 17:49:23.959
90, -187500.02, 64981.95, -173562.97, -138216.91, -187500.02, -185422.27, -187500.02, -187500.02, 0.000, 0.000, 0.000, 17:49:23.959
91, -187500.02, 64974.35, -173562.05, -138215.30, -187500.02, -185421.33, -187500.02, -187500.02, 0.000, 0.000, 0.000, 17:49:23.959
92, -187500.02, 64971.24, -173562.94, -138215.52, -187500.02, -185422.27, -187500.02, -187500.02, 0.000, 0.000, 0.000, 17:49:23.959
93, -187500.02, 64968.27, -173561.89, -138213.70, -187500.02, -185421.11, -187500.02, -187500.02, 0.000, 0.000, 0.000, 17:49:23.959
94, -187500.02, 64968.50, -173561.64, -138212.77, -187500.02, -185420.86, -187500.02, -187500.02, 0.000, 0.000, 0.000, 17:49:23.972
95, -187500.02, 64969.79, -173559.86, -138210.27, -187500.02, -185418.95, -187500.02, -187500.02, 0.000, 0.000, 0.000, 17:49:23.973
96, -187500.02, 64972.45, -173557.58, -138207.45, -187500.02, -185416.67, -187500.02, -187500.02, 0.000, 0.000, 0.000, 17:49:23.973
97, -187500.02, 64978.26, -173557.47, -138206.86, -187500.02, -185416.66, -187500.02, -187500.02, 0.000, 0.000, 0.000, 17:49:23.973
98, -187500.02, 64986.02, -173558.03, -138206.89, -187500.02, -185417.42, -187500.02, -187500.02, 0.000, 0.000, 0.000, 17:49:23.973
99, -187500.02, 64992.75, -173555.52, -138203.83, -187500.02, -185415.00, -187500.02, -187500.02, 0.000, 0.000, 0.000, 17:49:23.973
100, -187500.02, 65001.38, -173556.33, -138203.98, -187500.02, -185415.84, -187500.02, -187500.02, 0.000, 0.000, 0.000, 17:49:23.973
101, -187500.02, 65008.97, -173558.36, -138205.55, -187500.02, -185418.06, -187500.02, -187500.02, 0.000, 0.000, 0.000, 17:49:23.973
102, -187500.02, 65011.54, -173558.36, -138204.97, -187500.02, -185418.20, -187500.02, -187500.02, 0.000, 0.000, 0.000, 17:49:23.974
103, -187500.02, 65011.63, -173558.09, -138203.95, -187500.02, -185417.91, -187500.02, -187500.02, 0.000, 0.000, 0.000, 17:49:23.974
104, -187500.02, 65009.91, -173558.25, -138203.45, -187500.02, -185417.84, -187500.02, -187500.02, 0.000, 0.000, 0.000, 17:49:23.974
105, -187500.02, 65003.12, -173556.08, -138200.63, -187500.02, -185415.53, -187500.02, -187500.02, 0.000, 0.000, 0.000, 17:49:23.974
106, -187500.02, 64995.59, -173555.59, -138199.25, -187500.02, -185414.75, -187500.02, -187500.02, 0.000, 0.000, 0.000, 17:49:23.974
107, -187500.02, 64988.79, -173556.50, -138199.27, -187500.02, -185415.63, -187500.02, -187500.02, 0.000, 0.000, 0.000, 17:49:23.974
108, -187500.02, 64979.11, -173555.77, -138197.75, -187500.02, -185414.94, -187500.02, -187500.02, 0.000, 0.000, 0.000, 17:49:23.974
109, -187500.02, 64969.66, -173556.17, -138197.50, -187500.02, -185415.31, -187500.02, -187500.02, 0.000, 0.000, 0.000, 17:49:23.974
110, -187500.02, 64959.13, -173554.78, -138195.27, -187500.02, -185413.77, -187500.02, -187500.02, 0.000, 0.000, 0.000, 17:49:23.974
111, -187500.02, 64949.90, -173552.66, -138192.38, -187500.02, -185411.56, -187500.02, -187500.02, 0.000, 0.000, 0.000, 17:49:23.975
112, -187500.02, 64944.78, -173551.88, -138190.73, -187500.02, -185410.50, -187500.02, -187500.02, 0.000, 0.000, 0.000, 17:49:23.975
113, -187500.02, 64942.66, -173551.77, -138189.83, -187500.02, -185410.42, -187500.02, -187500.02, 0.000, 0.000, 0.000, 17:49:23.975
114, -187500.02, 64945.29, -173554.11, -138191.64, -187500.02, -185412.83, -187500.02, -187500.02, 0.000, 0.000, 0.000, 17:49:23.986
115, -187500.02, 64946.84, -173552.69, -138189.59, -187500.02, -185411.38, -187500.02, -187500.02, 0.000, 0.000, 0.000, 17:49:23.986
116, -187500.02, 64949.09, -173549.78, -138186.23, -187500.02, -185408.55, -187500.02, -187500.02, 0.000, 0.000, 0.000, 17:49:23.986
117, -187500.02, 64955.04, -173549.98, -138185.91, -187500.02, -185408.70, -187500.02, -187500.02, 0.000, 0.000, 0.000, 17:49:23.986
118, -187500.02, 64963.53, -173551.25, -138186.61, -187500.02, -185410.22, -187500.02, -187500.02, 0.000, 0.000, 0.000, 17:49:23.986
119, -187500.02, 64970.95, -173549.38, -138184.48, -187500.02, -185408.42, -187500.02, -187500.02, 0.000, 0.000, 0.000, 17:49:23.986
120, -187500.02, 64976.72, -173547.61, -138181.97, -187500.02, -185406.81, -187500.02, -187500.02, 0.000, 0.000, 0.000, 17:49:23.987
121, -187500.02, 64983.09, -173548.66, -138182.23, -187500.02, -185407.69, -187500.02, -187500.02, 0.000, 0.000, 0.000, 17:49:23.987
122, -187500.02, 64987.72, -173550.42, -138183.55, -187500.02, -185409.61, -187500.02, -187500.02, 0.000, 0.000, 0.000, 17:49:23.987
123, -187500.02, 64989.89, -173552.27, -138184.61, -187500.02, -185411.33, -187500.02, -187500.02, 0.000, 0.000, 0.000, 17:49:23.987
124, -187500.02, 64986.42, -173550.63, -138182.33, -187500.02, -185409.77, -187500.02, -187500.02, 0.000, 0.000, 0.000, 17:49:23.994
125, -187500.02, 64979.67, -173548.70, -138179.58, -187500.02, -185407.73, -187500.02, -187500.02, 0.000, 0.000, 0.000, 17:49:23.994
126, -187500.02, 64974.17, -173550.03, -138180.06, -187500.02, -185408.81, -187500.02, -187500.02, 0.000, 0.000, 0.000, 17:49:23.994
127, -187500.02, 64965.63, -173548.81, -138178.39, -187500.02, -185407.63, -187500.02, -187500.02, 0.000, 0.000, 0.000, 17:49:23.994
128, -187500.02, 64957.03, -173549.05, -138177.61, -187500.02, -185407.83, -187500.02, -187500.02, 0.000, 0.000, 0.000, 17:49:23.995
129, -187500.02, 64947.37, -173549.47, -138177.19, -187500.02, -185408.08, -187500.02, -187500.02, 0.000, 0.000, 0.000, 17:49:23.995
130, -187500.02, 64935.17, -173546.89, -138173.55, -187500.02, -185405.17, -187500.02, -187500.02, 0.000, 0.000, 0.000, 17:49:23.995
131, -187500.02, 64926.85, -173545.44, -138171.59, -187500.02, -185403.89, -187500.02, -187500.02, 0.000, 0.000, 0.000, 17:49:23.995
132, -187500.02, 64922.20, -173544.92, -138170.36, -187500.02, -185403.27, -187500.02, -187500.02, 0.000, 0.000, 0.000, 17:49:23.995
133, -187500.02, 64921.45, -173546.27, -138170.92, -187500.02, -185404.52, -187500.02, -187500.02, 0.000, 0.000, 0.000, 17:49:23.995
134, -187500.02, 64921.00, -173545.67, -138169.67, -187500.02, -185403.69, -187500.02, -187500.02, 0.000, 0.000, 0.000, 17:49:24.004
135, -187500.02, 64922.61, -173544.06, -138167.61, -187500.02, -185402.27, -187500.02, -187500.02, 0.000, 0.000, 0.000, 17:49:24.004
136, -187500.02, 64926.32, -173542.77, -138165.83, -187500.02, -185401.08, -187500.02, -187500.02, 0.000, 0.000, 0.000, 17:49:24.004
137, -187500.02, 64928.55, -173539.11, -138161.72, -187500.02, -185397.45, -187500.02, -187500.02, 0.000, 0.000, 0.000, 17:49:24.005
138, -187500.02, 64936.46, -173540.17, -138161.88, -187500.02, -185398.59, -187500.02, -187500.02, 0.000, 0.000, 0.000, 17:49:24.005
139, -187500.02, 64944.31, -173538.95, -138160.13, -187500.02, -185397.30, -187500.02, -187500.02, 0.000, 0.000, 0.000, 17:49:24.005
140, -187500.02, 64954.12, -173541.28, -138161.77, -187500.02, -185399.67, -187500.02, -187500.02, 0.000, 0.000, 0.000, 17:49:24.005
141, -187500.02, 64959.29, -173541.00, -138160.91, -187500.02, -185399.72, -187500.02, -187500.02, 0.000, 0.000, 0.000, 17:49:24.005
142, -187500.02, 64962.88, -173541.58, -138160.80, -187500.02, -185400.27, -187500.02, -187500.02, 0.000, 0.000, 0.000, 17:49:24.005
143, -187500.02, 64962.21, -173540.25, -138158.91, -187500.02, -185398.95, -187500.02, -187500.02, 0.000, 0.000, 0.000, 17:49:24.005
144, -187500.02, 64958.84, -173538.69, -138156.63, -187500.02, -185397.20, -187500.02, -187500.02, 0.000, 0.000, 0.000, 17:49:24.016
145, -187500.02, 64952.63, -173537.13, -138154.34, -187500.02, -185395.67, -187500.02, -187500.02, 0.000, 0.000, 0.000, 17:49:24.017
146, -187500.02, 64946.41, -173537.34, -138154.05, -187500.02, -185396.00, -187500.02, -187500.02, 0.000, 0.000, 0.000, 17:49:24.017
147, -187500.02, 64939.79, -173538.06, -138154.05, -187500.02, -185396.34, -187500.02, -187500.02, 0.000, 0.000, 0.000, 17:49:24.017
148, -187500.02, 64933.63, -173540.88, -138155.88, -187500.02, -185398.92, -187500.02, -187500.02, 0.000, 0.000, 0.000, 17:49:24.017
149, -187500.02, 64920.82, -173538.20, -138152.47, -187500.02, -185396.27, -187500.02, -187500.02, 0.000, 0.000, 0.000, 17:49:24.017
150, -187500.02, 64908.61, -173535.42, -138148.84, -187500.02, -185393.45, -187500.02, -187500.02, 0.000, 0.000, 0.000, 17:49:24.017
151, -187500.02, 64899.36, -173533.23, -138145.84, -187500.02, -185391.20, -187500.02, -187500.02, 0.000, 0.000, 0.000, 17:49:24.018
152, -187500.02, 64895.05, -173533.39, -138145.31, -187500.02, -185391.39, -187500.02, -187500.02, 0.000, 0.000, 0.000, 17:49:24.018
153, -187500.02, 64894.78, -173535.27, -138146.31, -187500.02, -185393.16, -187500.02, -187500.02, 0.000, 0.000, 0.000, 17:49:24.018
154, -187500.02, 64894.82, -173535.30, -138145.72, -187500.02, -185393.05, -187500.02, -187500.02, 0.000, 0.000, 0.000, 17:49:24.024
155, -187500.02, 64896.72, -173534.28, -138144.22, -187500.02, -185392.11, -187500.02, -187500.02, 0.000, 0.000, 0.000, 17:49:24.024
156, -187500.02, 64899.65, -173532.44, -138141.73, -187500.02, -185390.13, -187500.02, -187500.02, 0.000, 0.000, 0.000, 17:49:24.024
157, -187500.02, 64904.57, -173531.36, -138140.19, -187500.02, -185389.19, -187500.02, -187500.02, 0.000, 0.000, 0.000, 17:49:24.024
158, -187500.02, 64913.18, -173533.17, -138141.33, -187500.02, -185391.16, -187500.02, -187500.02, 0.000, 0.000, 0.000, 17:49:24.024
159, -187500.02, 64921.15, -173532.25, -138139.86, -187500.02, -185390.34, -187500.02, -187500.02, 0.000, 0.000, 0.000, 17:49:24.024
160, -187500.02, 64928.15, -173531.22, -138138.27, -187500.02, -185389.31, -187500.02, -187500.02, 0.000, 0.000, 0.000, 17:49:24.024
161, -187500.02, 64932.33, -173529.38, -138136.13, -187500.02, -185387.39, -187500.02, -187500.02, 0.000, 0.000, 0.000, 17:49:24.025
162, -187500.02, 64936.60, -173530.89, -138136.84, -187500.02, -185388.94, -187500.02, -187500.02, 0.000, 0.000, 0.000, 17:49:24.025
163, -187500.02, 64938.88, -173532.61, -138137.83, -187500.02, -185390.69, -187500.02, -187500.02, 0.000, 0.000, 0.000, 17:49:24.025
164, -187500.02, 64935.21, -173530.58, -138135.25, -187500.02, -185388.64, -187500.02, -187500.02, 0.000, 0.000, 0.000, 17:49:24.035
165, -187500.02, 64929.74, -173529.80, -138133.59, -187500.02, -185387.83, -187500.02, -187500.02, 0.000, 0.000, 0.000, 17:49:24.036
166, -187500.02, 64921.89, -173528.45, -138131.39, -187500.02, -185386.34, -187500.02, -187500.02, 0.000, 0.000, 0.000, 17:49:24.036
167, -187500.02, 64914.02, -173527.77, -138130.16, -187500.02, -185385.67, -187500.02, -187500.02, 0.000, 0.000, 0.000, 17:49:24.036
168, -187500.02, 64907.00, -173529.39, -138130.98, -187500.02, -185387.13, -187500.02, -187500.02, 0.000, 0.000, 0.000, 17:49:24.036
169, -187500.02, 64897.35, -173529.94, -138130.78, -187500.02, -185387.50, -187500.02, -187500.02, 0.000, 0.000, 0.000, 17:49:24.036
170, -187500.02, 64889.86, -173532.13, -138132.02, -187500.02, -185389.52, -187500.02, -187500.02, 0.000, 0.000, 0.000, 17:49:24.036
171, -187500.02, 64879.78, -173528.97, -138128.23, -187500.02, -185386.45, -187500.02, -187500.02, 0.000, 0.000, 0.000, 17:49:24.036
172, -187500.02, 64872.88, -173526.69, -138125.11, -187500.02, -185383.94, -187500.02, -187500.02, 0.000, 0.000, 0.000, 17:49:24.036
173, -187500.02, 64869.88, -173525.86, -138123.63, -187500.02, -185383.17, -187500.02, -187500.02, 0.000, 0.000, 0.000, 17:49:24.036
174, -187500.02, 64869.54, -173525.66, -138122.84, -187500.02, -185382.97, -187500.02, -187500.02, 0.000, 0.000, 0.000, 17:49:24.048
175, -187500.02, 64871.51, -173525.08, -138121.30, -187500.02, -185382.25, -187500.02, -187500.02, 0.000, 0.000, 0.000, 17:49:24.049
176, -187500.02, 64875.78, -173524.45, -138120.30, -187500.02, -185381.66, -187500.02, -187500.02, 0.000, 0.000, 0.000, 17:49:24.049
177, -187500.02, 64880.83, -173523.58, -138119.09, -187500.02, -185381.05, -187500.02, -187500.02, 0.000, 0.000, 0.000, 17:49:24.049
178, -187500.02, 64890.00, -173525.84, -138120.67, -187500.02, -185383.63, -187500.02, -187500.02, 0.000, 0.000, 0.000, 17:49:24.049
179, -187500.02, 64898.98, -173526.20, -138120.36, -187500.02, -185383.95, -187500.02, -187500.02, 0.000, 0.000, 0.000, 17:49:24.049
180, -187500.02, 64907.18, -173525.97, -138119.72, -187500.02, -185384.06, -187500.02, -187500.02, 0.000, 0.000, 0.000, 17:49:24.049
181, -187500.02, 64907.96, -173520.67, -138113.81, -187500.02, -185378.50, -187500.02, -187500.02, 0.000, 0.000, 0.000, 17:49:24.049
182, -187500.02, 64910.04, -173520.03, -138112.31, -187500.02, -185377.78, -187500.02, -187500.02, 0.000, 0.000, 0.000, 17:49:24.049
183, -187500.02, 64911.12, -173520.41, -138112.19, -187500.02, -185378.33, -187500.02, -187500.02, 0.000, 0.000, 0.000, 17:49:24.049
184, -187500.02, 64909.48, -173520.28, -138111.48, -187500.02, -185378.30, -187500.02, -187500.02, 0.000, 0.000, 0.000, 17:49:24.049
185, -187500.02, 64904.12, -173519.42, -138109.77, -187500.02, -185377.11, -187500.02, -187500.02, 0.000, 0.000, 0.000, 17:49:24.056
186, -187500.02, 64898.04, -173520.03, -138109.50, -187500.02, -185377.56, -187500.02, -187500.02, 0.000, 0.000, 0.000, 17:49:24.056
187, -187500.02, 64889.86, -173519.05, -138107.63, -187500.02, -185376.17, -187500.02, -187500.02, 0.000, 0.000, 0.000, 17:49:24.056
188, -187500.02, 64881.95, -173519.53, -138107.53, -187500.02, -185376.63, -187500.02, -187500.02, 0.000, 0.000, 0.000, 17:49:24.056
189, -187500.02, 64867.49, -173513.20, -138101.50, -187500.02, -185370.03, -187500.02, -187500.02, 0.000, 0.000, 0.000, 17:49:24.056
190, -187500.02, 64863.38, -173520.72, -138107.45, -187500.02, -185377.52, -187500.02, -187500.02, 0.000, 0.000, 0.000, 17:49:24.056
191, -187500.02, 64856.11, -173521.64, -138107.22, -187500.02, -185378.48, -187500.02, -187500.02, 0.000, 0.000, 0.000, 17:49:24.056
192, -187500.02, 64849.00, -173518.91, -138104.00, -187500.02, -185375.81, -187500.02, -187500.02, 0.000, 0.000, 0.000, 17:49:24.056
193, -187500.02, 64848.36, -173520.50, -138104.70, -187500.02, -185377.31, -187500.02, -187500.02, 0.000, 0.000, 0.000, 17:49:24.056
194, -187500.02, 64847.75, -173519.94, -138103.38, -187500.02, -185376.78, -187500.02, -187500.02, 0.000, 0.000, 0.000, 17:49:24.057
195, -187500.02, 64847.19, -173516.78, -138099.67, -187500.02, -185373.67, -187500.02, -187500.02, 0.000, 0.000, 0.000, 17:49:24.068
196, -187500.02, 64850.21, -173515.33, -138097.56, -187500.02, -185372.16, -187500.02, -187500.02, 0.000, 0.000, 0.000, 17:49:24.068
197, -187500.02, 64855.42, -173514.39, -138096.25, -187500.02, -185371.28, -187500.02, -187500.02, 0.000, 0.000, 0.000, 17:49:24.068
198, -187500.02, 64861.88, -173514.16, -138095.47, -187500.02, -185371.17, -187500.02, -187500.02, 0.000, 0.000, 0.000, 17:49:24.068
199, -187500.02, 64870.64, -173514.27, -138094.92, -187500.02, -185371.44, -187500.02, -187500.02, 0.000, 0.000, 0.000, 17:49:24.068
200, -187500.02, 64879.22, -173514.63, -138094.97, -187500.02, -185371.89, -187500.02, -187500.02, 0.000, 0.000, 0.000, 17:49:24.068
201, -187500.02, 64882.38, -173511.77, -138091.44, -187500.02, -185368.86, -187500.02, -187500.02, 0.000, 0.000, 0.000, 17:49:24.068
202, -187500.02, 64885.77, -173512.08, -138090.95, -187500.02, -185369.31, -187500.02, -187500.02, 0.000, 0.000, 0.000, 17:49:24.068
203, -187500.02, 64885.03, -173510.53, -138088.77, -187500.02, -185367.88, -187500.02, -187500.02, 0.000, 0.000, 0.000, 17:49:24.068
204, -187500.02, 64885.19, -173512.11, -138089.52, -187500.02, -185369.31, -187500.02, -187500.02, 0.000, 0.000, 0.000, 17:49:24.069
205, -187500.02, 64880.94, -173512.42, -138089.03, -187500.02, -185369.31, -187500.02, -187500.02, 0.000, 0.000, 0.000, 17:49:24.095
206, -187500.02, 64874.24, -173511.94, -138088.16, -187500.02, -185369.02, -187500.02, -187500.02, 0.000, 0.000, 0.000, 17:49:24.095
207, -187500.02, 64865.68, -173510.66, -138086.25, -187500.02, -185367.50, -187500.02, -187500.02, 0.000, 0.000, 0.000, 17:49:24.095
208, -187500.02, 64856.76, -173510.28, -138085.08, -187500.02, -185367.14, -187500.02, -187500.02, 0.000, 0.000, 0.000, 17:49:24.095
209, -187500.02, 64846.16, -173509.81, -138083.66, -187500.02, -185366.39, -187500.02, -187500.02, 0.000, 0.000, 0.000, 17:49:24.095
210, -187500.02, 64836.91, -173510.28, -138083.19, -187500.02, -185366.63, -187500.02, -187500.02, 0.000, 0.000, 0.000, 17:49:24.095
211, -187500.02, 64830.14, -173510.69, -138082.86, -187500.02, -185367.02, -187500.02, -187500.02, 0.000, 0.000, 0.000, 17:49:24.095
212, -187500.02, 64821.96, -173507.42, -138079.03, -187500.02, -185363.77, -187500.02, -187500.02, 0.000, 0.000, 0.000, 17:49:24.095
213, -187500.02, 64819.52, -173507.42, -138078.20, -187500.02, -185363.77, -187500.02, -187500.02, 0.000, 0.000, 0.000, 17:49:24.095
214, -187500.02, 64819.48, -173507.63, -138077.77, -187500.02, -185364.02, -187500.02, -187500.02, 0.000, 0.000, 0.000, 17:49:24.095
215, -187500.02, 64820.88, -173506.33, -138076.02, -187500.02, -185362.81, -187500.02, -187500.02, 0.000, 0.000, 0.000, 17:49:24.095
216, -187500.02, 64824.44, -173505.33, -138074.30, -187500.02, -185361.80, -187500.02, -187500.02, 0.000, 0.000, 0.000, 17:49:24.095
217, -187500.02, 64829.96, -173505.03, -138073.34, -187500.02, -185361.56, -187500.02, -187500.02, 0.000, 0.000, 0.000, 17:49:24.095
218, -187500.02, 64835.77, -173504.27, -138071.97, -187500.02, -185360.89, -187500.02, -187500.02, 0.000, 0.000, 0.000, 17:49:24.095
219, -187500.02, 64845.74, -173505.66, -138072.73, -187500.02, -185362.27, -187500.02, -187500.02, 0.000, 0.000, 0.000, 17:49:24.095
220, -187500.02, 64853.36, -173504.72, -138071.27, -187500.02, -185361.31, -187500.02, -187500.02, 0.000, 0.000, 0.000, 17:49:24.095
221, -187500.02, 64858.14, -173503.53, -138069.42, -187500.02, -185360.02, -187500.02, -187500.02, 0.000, 0.000, 0.000, 17:49:24.095
222, -187500.02, 64861.41, -173503.42, -138068.69, -187500.02, -185359.92, -187500.02, -187500.02, 0.000, 0.000, 0.000, 17:49:24.095
223, -187500.02, 64864.31, -173505.44, -138070.08, -187500.02, -185362.11, -187500.02, -187500.02, 0.000, 0.000, 0.000, 17:49:24.095
224, -187500.02, 64865.95, -173508.31, -138072.23, -187500.02, -185365.06, -187500.02, -187500.02, 0.000, 0.000, 0.000, 17:49:24.096
225, -187500.02, 64861.21, -173507.91, -138071.09, -187500.02, -185364.59, -187500.02, -187500.02, 0.000, 0.000, 0.000, 17:49:24.098
226, -187500.02, 64855.80, -173509.03, -138071.33, -187500.02, -185365.45, -187500.02, -187500.02, 0.000, 0.000, 0.000, 17:49:24.099
227, -187500.02, 64847.50, -173507.80, -138069.67, -187500.02, -185364.17, -187500.02, -187500.02, 0.000, 0.000, 0.000, 17:49:24.099
228, -187500.02, 64838.45, -173506.73, -138067.92, -187500.02, -185363.19, -187500.02, -187500.02, 0.000, 0.000, 0.000, 17:49:24.099
229, -187500.02, 64828.24, -173506.97, -138067.06, -187500.02, -185363.19, -187500.02, -187500.02, 0.000, 0.000, 0.000, 17:49:24.099
230, -187500.02, 64815.74, -173504.56, -138063.69, -187500.02, -185360.58, -187500.02, -187500.02, 0.000, 0.000, 0.000, 17:49:24.099
231, -187500.02, 64806.85, -173503.17, -138061.56, -187500.02, -185358.94, -187500.02, -187500.02, 0.000, 0.000, 0.000, 17:49:24.099
232, -187500.02, 64801.01, -173501.95, -138059.66, -187500.02, -185357.69, -187500.02, -187500.02, 0.000, 0.000, 0.000, 17:49:24.099
233, -187500.02, 64798.06, -173501.59, -138058.77, -187500.02, -185357.52, -187500.02, -187500.02, 0.000, 0.000, 0.000, 17:49:24.099
234, -187500.02, 64797.06, -173500.94, -138057.38, -187500.02, -185356.63, -187500.02, -187500.02, 0.000, 0.000, 0.000, 17:49:24.099
235, -187500.02, 64797.77, -173498.84, -138054.89, -187500.02, -185354.56, -187500.02, -187500.02, 0.000, 0.000, 0.000, 17:49:24.107
236, -187500.02, 64805.89, -173502.92, -138058.16, -187500.02, -185358.52, -187500.02, -187500.02, 0.000, 0.000, 0.000, 17:49:24.107
237, -187500.02, 64811.16, -173502.42, -138057.16, -187500.02, -185358.23, -187500.02, -187500.02, 0.000, 0.000, 0.000, 17:49:24.107
238, -187500.02, 64816.79, -173500.94, -138055.14, -187500.02, -185356.86, -187500.02, -187500.02, 0.000, 0.000, 0.000, 17:49:24.107
239, -187500.02, 64826.52, -173502.11, -138055.59, -187500.02, -185358.19, -187500.02, -187500.02, 0.000, 0.000, 0.000, 17:49:24.107
240, -187500.02, 64834.43, -173501.77, -138054.69, -187500.02, -185357.89, -187500.02, -187500.02, 0.000, 0.000, 0.000, 17:49:24.107
241, -187500.02, 64839.77, -173500.94, -138053.56, -187500.02, -185357.13, -187500.02, -187500.02, 0.000, 0.000, 0.000, 17:49:24.107
242, -187500.02, 64840.13, -173497.63, -138049.67, -187500.02, -185354.09, -187500.02, -187500.02, 0.000, 0.000, 0.000, 17:49:24.107
243, -187500.02, 64838.12, -173494.97, -138046.20, -187500.02, -185351.20, -187500.02, -187500.02, 0.000, 0.000, 0.000, 17:49:24.107
244, -187500.02, 64835.30, -173492.80, -138043.66, -187500.02, -185349.06, -187500.02, -187500.02, 0.000, 0.000, 0.000, 17:49:24.107
245, -187500.02, 64835.95, -173497.83, -138047.81, -187500.02, -185354.11, -187500.02, -187500.02, 0.000, 0.000, 0.000, 17:49:24.116
246, -187500.02, 64829.45, -173497.92, -138046.88, -187500.02, -185353.98, -187500.02, -187500.02, 0.000, 0.000, 0.000, 17:49:24.117
247, -187500.02, 64820.59, -173496.48, -138044.80, -187500.02, -185352.59, -187500.02, -187500.02, 0.000, 0.000, 0.000, 17:49:24.118
248, -187500.02, 64810.18, -173493.92, -138041.58, -187500.02, -185349.75, -187500.02, -187500.02, 0.000, 0.000, 0.000, 17:49:24.118
249, -187500.02, 64799.25, -173493.42, -138039.98, -187500.02, -185348.97, -187500.02, -187500.02, 0.000, 0.000, 0.000, 17:49:24.118
250, -187500.02, 64788.68, -173492.98, -138038.72, -187500.02, -185348.44, -187500.02, -187500.02, 0.000, 0.000, 0.000, 17:49:24.118
251, -187500.02, 64783.46, -173495.06, -138040.14, -187500.02, -185350.56, -187500.02, -187500.02, 0.000, 0.000, 0.000, 17:49:24.118
252, -187500.02, 64778.75, -173495.31, -138039.94, -187500.02, -185350.94, -187500.02, -187500.02, 0.000, 0.000, 0.000, 17:49:24.118
253, -187500.02, 64775.22, -173494.34, -138038.20, -187500.02, -185349.78, -187500.02, -187500.02, 0.000, 0.000, 0.000, 17:49:24.118
254, -187500.02, 64774.77, -173494.44, -138037.42, -187500.02, -185349.84, -187500.02, -187500.02, 0.000, 0.000, 0.000, 17:49:24.118
255, -187500.02, 64776.20, -173493.61, -138035.86, -187500.02, -185348.91, -187500.02, -187500.02, 0.000, 0.000, 0.000, 17:49:24.127
0, -187500.02, 64782.35, -173495.42, -138037.03, -187500.02, -185350.61, -187500.02, -187500.02, 0.000, 0.000, 0.000, 17:49:24.127
1, -187500.02, 64787.16, -173494.59, -138035.58, -187500.02, -185349.91, -187500.02, -187500.02, 0.000, 0.000, 0.000, 17:49:24.127
2, -187500.02, 64791.43, -173491.69, -138032.39, -187500.02, -185347.23, -187500.02, -187500.02, 0.000, 0.000, 0.000, 17:49:24.128
3, -187500.02, 64801.82, -173493.42, -138033.55, -187500.02, -185349.31, -187500.02, -187500.02, 0.000, 0.000, 0.000, 17:49:24.128
4, -187500.02, 64809.28, -173492.83, -138032.09, -187500.02, -185348.55, -187500.02, -187500.02, 0.000, 0.000, 0.000, 17:49:24.128
5, -187500.02, 64812.59, -173489.67, -138028.52, -187500.02, -185345.33, -187500.02, -187500.02, 0.000, 0.000, 0.000, 17:49:24.128
6, -187500.02, 64817.55, -173491.28, -138029.61, -187500.02, -185347.00, -187500.02, -187500.02, 0.000, 0.000, 0.000, 17:49:24.128
7, -187500.02, 64820.10, -173493.31, -138031.00, -187500.02, -185349.22, -187500.02, -187500.02, 0.000, 0.000, 0.000, 17:49:24.128
8, -187500.02, 64817.51, -173491.59, -138028.52, -187500.02, -185347.36, -187500.02, -187500.02, 0.000, 0.000, 0.000, 17:49:24.128
9, -187500.02, 64811.85, -173489.88, -138025.95, -187500.02, -185345.33, -187500.02, -187500.02, 0.000, 0.000, 0.000, 17:49:24.138
10, -187500.02, 64803.76, -173488.17, -138023.47, -187500.02, -185343.39, -187500.02, -187500.02, 0.000, 0.000, 0.000, 17:49:24.138
11, -187500.02, 64795.76, -173487.39, -138022.13, -187500.02, -185342.58, -187500.02, -187500.02, 0.000, 0.000, 0.000, 17:49:24.138
12, -187500.02, 64786.66, -173486.17, -138020.28, -187500.02, -185341.23, -187500.02, -187500.02, 0.000, 0.000, 0.000, 17:49:24.139
13, -187500.02, 64775.87, -173485.58, -138018.64, -187500.02, -185340.72, -187500.02, -187500.02, 0.000, 0.000, 0.000, 17:49:24.139
14, -187500.02, 64764.38, -173484.31, -138016.36, -187500.02, -185339.31, -187500.02, -187500.02, 0.000, 0.000, 0.000, 17:49:24.139
15, -187500.02, 64755.84, -173483.30, -138014.69, -187500.02, -185338.13, -187500.02, -187500.02, 0.000, 0.000, 0.000, 17:49:24.139
16, -187500.02, 64750.12, -173482.86, -138013.45, -187500.02, -185337.53, -187500.02, -187500.02, 0.000, 0.000, 0.000, 17:49:24.139
17, -187500.02, 64747.39, -173482.59, -138012.63, -187500.02, -185337.44, -187500.02, -187500.02, 0.000, 0.000, 0.000, 17:49:24.139
18, -187500.02, 64748.13, -173484.05, -138013.55, -187500.02, -185338.73, -187500.02, -187500.02, 0.000, 0.000, 0.000, 17:49:24.139
19, -187500.02, 64752.20, -173485.98, -138014.70, -187500.02, -185340.53, -187500.02, -187500.02, 0.000, 0.000, 0.000, 17:49:24.150
20, -187500.02, 64757.45, -173486.95, -138014.97, -187500.02, -185341.58, -187500.02, -187500.02, 0.000, 0.000, 0.000, 17:49:24.150
21, -187500.02, 64763.08, -173486.66, -138014.39, -187500.02, -185341.64, -187500.02, -187500.02, 0.000, 0.000, 0.000, 17:49:24.150
22, -187500.02, 64766.90, -173483.33, -138010.59, -187500.02, -185338.48, -187500.02, -187500.02, 0.000, 0.000, 0.000, 17:49:24.150
23, -187500.02, 64775.60, -173483.70, -138010.28, -187500.02, -185338.83, -187500.02, -187500.02, 0.000, 0.000, 0.000, 17:49:24.150
24, -187500.02, 64785.16, -173484.80, -138010.81, -187500.02, -185339.98, -187500.02, -187500.02, 0.000, 0.000, 0.000, 17:49:24.151
25, -187500.02, 64792.54, -173485.94, -138011.36, -187500.02, -185341.08, -187500.02, -187500.02, 0.000, 0.000, 0.000, 17:49:24.151
26, -187500.02, 64794.82, -173484.64, -138009.48, -187500.02, -185339.73, -187500.02, -187500.02, 0.000, 0.000, 0.000, 17:49:24.151
27, -187500.02, 64795.38, -173484.28, -138008.53, -187500.02, -185339.25, -187500.02, -187500.02, 0.000, 0.000, 0.000, 17:49:24.151
28, -187500.02, 64792.88, -173482.48, -138005.97, -187500.02, -185337.55, -187500.02, -187500.02, 0.000, 0.000, 0.000, 17:49:24.151
29, -187500.02, 64788.05, -173481.66, -138004.19, -187500.02, -185336.72, -187500.02, -187500.02, 0.000, 0.000, 0.000, 17:49:24.151
30, -187500.02, 64781.19, -173481.25, -138002.97, -187500.02, -185336.19, -187500.02, -187500.02, 0.000, 0.000, 0.000, 17:49:24.159
31, -187500.02, 64763.30, -173478.50, -137998.84, -187500.02, -185333.14, -187500.02, -187500.02, 0.000, 0.000, 0.000, 17:49:24.159
32, -187500.02, 64755.21, -173480.47, -137999.78, -187500.02, -185335.08, -187500.02, -187500.02, 0.000, 0.000, 0.000, 17:49:24.159
33, -187500.02, 64747.48, -173482.75, -138001.50, -187500.02, -185337.22, -187500.02, -187500.02, 0.000, 0.000, 0.000, 17:49:24.159
34, -187500.02, 64738.11, -173481.14, -137999.08, -187500.02, -185335.55, -187500.02, -187500.02, 0.000, 0.000, 0.000, 17:49:24.159
35, -187500.02, 64730.29, -173478.41, -137995.58, -187500.02, -185332.67, -187500.02, -187500.02, 0.000, 0.000, 0.000, 17:49:24.159
36, -187500.02, 64728.13, -173478.97, -137995.39, -187500.02, -185333.19, -187500.02, -187500.02, 0.000, 0.000, 0.000, 17:49:24.159
37, -187500.02, 64725.80, -173477.38, -137993.14, -187500.02, -185331.67, -187500.02, -187500.02, 0.000, 0.000, 0.000, 17:49:24.160
38, -187500.02, 64725.38, -173474.63, -137989.83, -187500.02, -185328.95, -187500.02, -187500.02, 0.000, 0.000, 0.000, 17:49:24.160
39, -187500.02, 64729.49, -173474.61, -137989.00, -187500.02, -185328.86, -187500.02, -187500.02, 0.000, 0.000, 0.000, 17:49:24.171
40, -187500.02, 64736.59, -173476.06, -137989.89, -187500.02, -185330.31, -187500.02, -187500.02, 0.000, 0.000, 0.000, 17:49:24.171
41, -187500.02, 64743.52, -173476.17, -137989.77, -187500.02, -185330.63, -187500.02, -187500.02, 0.000, 0.000, 0.000, 17:49:24.171
42, -187500.02, 64752.96, -173477.36, -137990.55, -187500.02, -185332.03, -187500.02, -187500.02, 0.000, 0.000, 0.000, 17:49:24.172
43, -187500.02, 64762.21, -173478.34, -137990.75, -187500.02, -185333.03, -187500.02, -187500.02, 0.000, 0.000, 0.000, 17:49:24.172
44, -187500.02, 64769.09, -173478.83, -137990.36, -187500.02, -185333.19, -187500.02, -187500.02, 0.000, 0.000, 0.000, 17:49:24.172
45, -187500.02, 64772.74, -173478.63, -137989.66, -187500.02, -185333.14, -187500.02, -187500.02, 0.000, 0.000, 0.000, 17:49:24.172
46, -187500.02, 64774.30, -173478.70, -137989.31, -187500.02, -185333.42, -187500.02, -187500.02, 0.000, 0.000, 0.000, 17:49:24.172
47, -187500.02, 64772.87, -173478.36, -137988.02, -187500.02, -185332.86, -187500.02, -187500.02, 0.000, 0.000, 0.000, 17:49:24.172
48, -187500.02, 64767.39, -173476.64, -137985.72, -187500.02, -185331.16, -187500.02, -187500.02, 0.000, 0.000, 0.000, 17:49:24.172
49, -187500.02, 64758.81, -173473.94, -137982.33, -187500.02, -185328.28, -187500.02, -187500.02, 0.000, 0.000, 0.000, 17:49:24.175
50, -187500.02, 64753.74, -173476.58, -137983.89, -187500.02, -185330.69, -187500.02, -187500.02, 0.000, 0.000, 0.000, 17:49:24.175
51, -187500.02, 64729.09, -173469.63, -137975.56, -187500.02, -185323.47, -187500.02, -187500.02, 0.000, 0.000, 0.000, 17:49:24.175
52, -187500.02, 64719.23, -173470.34, -137975.41, -187500.02, -185323.88, -187500.02, -187500.02, 0.000, 0.000, 0.000, 17:49:24.175
53, -187500.02, 64710.82, -173469.58, -137973.83, -187500.02, -185323.14, -187500.02, -187500.02, 0.000, 0.000, 0.000, 17:49:24.175
54, -187500.02, 64703.43, -173467.23, -137970.97, -187500.02, -185320.92, -187500.02, -187500.02, 0.000, 0.000, 0.000, 17:49:24.176
55, -187500.02, 64702.11, -173468.81, -137971.80, -187500.02, -185322.75, -187500.02, -187500.02, 0.000, 0.000, 0.000, 17:49:24.176
56, -187500.02, 64700.95, -173468.44, -137970.70, -187500.02, -185322.27, -187500.02, -187500.02, 0.000, 0.000, 0.000, 17:49:24.176
57, -187500.02, 64701.52, -173466.73, -137968.42, -187500.02, -185320.66, -187500.02, -187500.02, 0.000, 0.000, 0.000, 17:49:24.176
58, -187500.02, 64704.81, -173465.78, -137966.88, -187500.02, -185319.78, -187500.02, -187500.02, 0.000, 0.000, 0.000, 17:49:24.190
59, -187500.02, 64713.46, -173469.06, -137969.47, -187500.02, -185322.98, -187500.02, -187500.02, 0.000, 0.000, 0.000, 17:49:24.190
60, -187500.02, 64719.27, -173467.95, -137968.06, -187500.02, -185321.81, -187500.02, -187500.02, 0.000, 0.000, 0.000, 17:49:24.190
61, -187500.02, 64727.36, -173468.03, -137967.45, -187500.02, -185322.06, -187500.02, -187500.02, 0.000, 0.000, 0.000, 17:49:24.190
62, -187500.02, 64735.03, -173467.03, -137965.75, -187500.02, -185321.13, -187500.02, -187500.02, 0.000, 0.000, 0.000, 17:49:24.190
63, -187500.02, 64741.78, -173467.28, -137965.41, -187500.02, -185321.44, -187500.02, -187500.02, 0.000, 0.000, 0.000, 17:49:24.191
64, -187500.02, 64746.09, -173467.61, -137965.17, -187500.02, -185321.80, -187500.02, -187500.02, 0.000, 0.000, 0.000, 17:49:24.191
65, -187500.02, 64745.74, -173465.78, -137962.83, -187500.02, -185319.88, -187500.02, -187500.02, 0.000, 0.000, 0.000, 17:49:24.191
66, -187500.02, 64745.87, -173466.88, -137963.09, -187500.02, -185320.97, -187500.02, -187500.02, 0.000, 0.000, 0.000, 17:49:24.191
67, -187500.02, 64743.37, -173468.27, -137963.77, -187500.02, -185322.22, -187500.02, -187500.02, 0.000, 0.000, 0.000, 17:49:24.191
68, -187500.02, 64736.15, -173466.98, -137961.72, -187500.02, -185320.86, -187500.02, -187500.02, 0.000, 0.000, 0.000, 17:49:24.202
69, -187500.02, 64726.70, -173464.75, -137958.84, -187500.02, -185318.58, -187500.02, -187500.02, 0.000, 0.000, 0.000, 17:49:24.202
70, -187500.02, 64719.23, -173465.27, -137958.72, -187500.02, -185319.14, -187500.02, -187500.02, 0.000, 0.000, 0.000, 17:49:24.202
71, -187500.02, 64708.14, -173464.02, -137956.45, -187500.02, -185317.61, -187500.02, -187500.02, 0.000, 0.000, 0.000, 17:49:24.202
72, -187500.02, 64696.59, -173462.47, -137954.06, -187500.02, -185316.09, -187500.02, -187500.02, 0.000, 0.000, 0.000, 17:49:24.202
73, -187500.02, 64689.03, -173462.98, -137953.75, -187500.02, -185316.52, -187500.02, -187500.02, 0.000, 0.000, 0.000, 17:49:24.203
74, -187500.02, 64683.20, -173462.94, -137953.00, -187500.02, -185316.36, -187500.02, -187500.02, 0.000, 0.000, 0.000, 17:49:24.203
75, -187500.02, 64680.74, -173463.20, -137952.53, -187500.02, -185316.31, -187500.02, -187500.02, 0.000, 0.000, 0.000, 17:49:24.203
76, -187500.02, 64679.11, -173462.55, -137951.14, -187500.02, -185315.63, -187500.02, -187500.02, 0.000, 0.000, 0.000, 17:49:24.203
77, -187500.02, 64682.88, -173464.47, -137952.61, -187500.02, -185317.72, -187500.02, -187500.02, 0.000, 0.000, 0.000, 17:49:24.203
78, -187500.02, 64686.59, -173463.75, -137951.25, -187500.02, -185316.91, -187500.02, -187500.02, 0.000, 0.000, 0.000, 17:49:24.209
79, -187500.02, 64689.72, -173461.41, -137948.28, -187500.02, -185314.70, -187500.02, -187500.02, 0.000, 0.000, 0.000, 17:49:24.210
80, -187500.02, 64695.51, -173460.53, -137946.92, -187500.02, -185313.86, -187500.02, -187500.02, 0.000, 0.000, 0.000, 17:49:24.210
81, -187500.02, 64702.46, -173459.02, -137944.92, -187500.02, -185312.39, -187500.02, -187500.02, 0.000, 0.000, 0.000, 17:49:24.210
82, -187500.02, 64711.79, -173459.67, -137944.92, -187500.02, -185313.30, -187500.02, -187500.02, 0.000, 0.000, 0.000, 17:49:24.210
83, -187500.02, 64716.25, -173457.56, -137942.27, -187500.02, -185311.17, -187500.02, -187500.02, 0.000, 0.000, 0.000, 17:49:24.210
84, -187500.02, 64720.84, -173458.47, -137942.59, -187500.02, -185311.98, -187500.02, -187500.02, 0.000, 0.000, 0.000, 17:49:24.210
85, -187500.02, 64721.44, -173457.44, -137941.02, -187500.02, -185311.20, -187500.02, -187500.02, 0.000, 0.000, 0.000, 17:49:24.210
86, -187500.02, 64718.87, -173455.50, -137938.36, -187500.02, -185309.19, -187500.02, -187500.02, 0.000, 0.000, 0.000, 17:49:24.210
87, -187500.02, 64716.32, -173456.64, -137938.52, -187500.02, -185310.02, -187500.02, -187500.02, 0.000, 0.000, 0.000, 17:49:24.210
88, -187500.02, 64710.09, -173456.19, -137937.39, -187500.02, -185309.55, -187500.02, -187500.02, 0.000, 0.000, 0.000, 17:49:24.222
89, -187500.02, 64700.00, -173453.23, -137933.86, -187500.02, -185306.55, -187500.02, -187500.02, 0.000, 0.000, 0.000, 17:49:24.222
90, -187500.02, 64691.40, -173452.48, -137932.39, -187500.02, -185305.72, -187500.02, -187500.02, 0.000, 0.000, 0.000, 17:49:24.222
91, -187500.02, 64680.31, -173451.20, -137930.20, -187500.02, -185304.09, -187500.02, -187500.02, 0.000, 0.000, 0.000, 17:49:24.222
92, -187500.02, 64668.20, -173449.38, -137927.48, -187500.02, -185302.27, -187500.02, -187500.02, 0.000, 0.000, 0.000, 17:49:24.222
93, -187500.02, 64659.91, -173449.36, -137926.59, -187500.02, -185302.13, -187500.02, -187500.02, 0.000, 0.000, 0.000, 17:49:24.222
94, -187500.02, 64656.17, -173450.92, -137927.38, -187500.02, -185303.64, -187500.02, -187500.02, 0.000, 0.000, 0.000, 17:49:24.222
95, -187500.02, 64652.75, -173450.42, -137926.22, -187500.02, -185303.13, -187500.02, -187500.02, 0.000, 0.000, 0.000, 17:49:24.222
96, -187500.02, 64652.64, -173451.56, -137926.52, -187500.02, -185304.25, -187500.02, -187500.02, 0.000, 0.000, 0.000, 17:49:24.222
97, -187500.02, 64651.99, -173448.70, -137923.36, -187500.02, -185301.41, -187500.02, -187500.02, 0.000, 0.000, 0.000, 17:49:24.223
98, -187500.02, 64657.98, -173450.88, -137924.83, -187500.02, -185303.58, -187500.02, -187500.02, 0.000, 0.000, 0.000, 17:49:24.239
99, -187500.02, 64662.72, -173450.41, -137923.72, -187500.02, -185303.16, -187500.02, -187500.02, 0.000, 0.000, 0.000, 17:49:24.239
100, -187500.02, 64667.21, -173448.30, -137921.08, -187500.02, -185301.08, -187500.02, -187500.02, 0.000, 0.000, 0.000, 17:49:24.239
101, -187500.02, 64675.33, -173447.83, -137920.45, -187500.02, -185300.84, -187500.02, -187500.02, 0.000, 0.000, 0.000, 17:49:24.239
102, -187500.02, 64687.80, -173451.92, -137923.64, -187500.02, -185304.92, -187500.02, -187500.02, 0.000, 0.000, 0.000, 17:49:24.239
103, -187500.02, 64693.59, -173451.23, -137922.19, -187500.02, -185304.20, -187500.02, -187500.02, 0.000, 0.000, 0.000, 17:49:24.239
104, -187500.02, 64696.79, -173450.17, -137920.56, -187500.02, -185303.16, -187500.02, -187500.02, 0.000, 0.000, 0.000, 17:49:24.239
105, -187500.02, 64697.57, -173449.33, -137919.11, -187500.02, -185302.44, -187500.02, -187500.02, 0.000, 0.000, 0.000, 17:49:24.239
106, -187500.02, 64697.10, -173449.36, -137918.63, -187500.02, -185302.48, -187500.02, -187500.02, 0.000, 0.000, 0.000, 17:49:24.240
107, -187500.02, 64690.95, -173446.61, -137915.25, -187500.02, -185299.69, -187500.02, -187500.02, 0.000, 0.000, 0.000, 17:49:24.240
108, -187500.02, 64682.55, -173443.77, -137911.52, -187500.02, -185296.77, -187500.02, -187500.02, 0.000, 0.000, 0.000, 17:49:24.240
109, -187500.02, 64675.82, -173444.45, -137911.31, -187500.02, -185297.14, -187500.02, -187500.02, 0.000, 0.000, 0.000, 17:49:24.240
110, -187500.02, 64667.26, -173443.61, -137909.91, -187500.02, -185296.16, -187500.02, -187500.02, 0.000, 0.000, 0.000, 17:49:24.240
111, -187500.02, 64658.54, -173444.55, -137910.03, -187500.02, -185296.94, -187500.02, -187500.02, 0.000, 0.000, 0.000, 17:49:24.240
112, -187500.02, 64650.07, -173446.53, -137911.23, -187500.02, -185299.06, -187500.02, -187500.02, 0.000, 0.000, 0.000, 17:49:24.240
113, -187500.02, 64638.94, -173443.50, -137907.38, -187500.02, -185296.00, -187500.02, -187500.02, 0.000, 0.000, 0.000, 17:49:24.240
114, -187500.02, 64633.49, -173443.88, -137906.95, -187500.02, -185296.30, -187500.02, -187500.02, 0.000, 0.000, 0.000, 17:49:24.240
115, -187500.02, 64630.94, -173444.44, -137906.84, -187500.02, -185296.78, -187500.02, -187500.02, 0.000, 0.000, 0.000, 17:49:24.240
116, -187500.02, 64629.35, -173443.81, -137905.47, -187500.02, -185296.09, -187500.02, -187500.02, 0.000, 0.000, 0.000, 17:49:24.240
117, -187500.02, 64631.63, -173444.38, -137905.28, -187500.02, -185296.64, -187500.02, -187500.02, 0.000, 0.000, 0.000, 17:49:24.240
118, -187500.02, 64635.32, -173443.86, -137904.36, -187500.02, -185296.16, -187500.02, -187500.02, 0.000, 0.000, 0.000, 17:49:24.254
119, -187500.02, 64636.91, -173440.34, -137900.14, -187500.02, -185292.63, -187500.02, -187500.02, 0.000, 0.000, 0.000, 17:49:24.254
120, -187500.02, 64642.43, -173439.16, -137898.45, -187500.02, -185291.50, -187500.02, -187500.02, 0.000, 0.000, 0.000, 17:49:24.255
121, -187500.02, 64651.55, -173439.88, -137898.69, -187500.02, -185292.31, -187500.02, -187500.02, 0.000, 0.000, 0.000, 17:49:24.255
122, -187500.02, 64662.10, -173441.91, -137900.00, -187500.02, -185294.34, -187500.02, -187500.02, 0.000, 0.000, 0.000, 17:49:24.255
123, -187500.02, 64666.46, -173439.56, -137897.09, -187500.02, -185292.00, -187500.02, -187500.02, 0.000, 0.000, 0.000, 17:49:24.255
124, -187500.02, 64670.61, -173439.52, -137896.48, -187500.02, -185292.09, -187500.02, -187500.02, 0.000, 0.000, 0.000, 17:49:24.255
125, -187500.02, 64671.51, -173438.75, -137894.92, -187500.02, -185291.28, -187500.02, -187500.02, 0.000, 0.000, 0.000, 17:49:24.255
126, -187500.02, 64671.04, -173438.64, -137894.41, -187500.02, -185291.39, -187500.02, -187500.02, 0.000, 0.000, 0.000, 17:49:24.255
127, -187500.02, 64667.15, -173438.09, -137893.11, -187500.02, -185290.69, -187500.02, -187500.02, 0.000, 0.000, 0.000, 17:49:24.255
128, -187500.02, 64661.07, -173437.63, -137891.94, -187500.02, -185290.14, -187500.02, -187500.02, 0.000, 0.000, 0.000, 17:49:24.257
129, -187500.02, 64654.21, -173437.81, -137891.28, -187500.02, -185290.05, -187500.02, -187500.02, 0.000, 0.000, 0.000, 17:49:24.258
130, -187500.02, 64644.21, -173435.94, -137888.63, -187500.02, -185288.20, -187500.02, -187500.02, 0.000, 0.000, 0.000, 17:49:24.258
131, -187500.02, 64633.06, -173434.06, -137886.16, -187500.02, -185286.20, -187500.02, -187500.02, 0.000, 0.000, 0.000, 17:49:24.258
132, -187500.02, 64622.64, -173434.53, -137885.42, -187500.02, -185286.39, -187500.02, -187500.02, 0.000, 0.000, 0.000, 17:49:24.258
133, -187500.02, 64613.82, -173433.80, -137884.06, -187500.02, -185285.61, -187500.02, -187500.02, 0.000, 0.000, 0.000, 17:49:24.258
134, -187500.02, 64609.57, -173435.06, -137884.80, -187500.02, -185286.88, -187500.02, -187500.02, 0.000, 0.000, 0.000, 17:49:24.258
135, -187500.02, 64603.76, -173432.45, -137881.22, -187500.02, -185284.06, -187500.02, -187500.02, 0.000, 0.000, 0.000, 17:49:24.258
136, -187500.02, 64602.75, -173432.67, -137880.58, -187500.02, -185284.27, -187500.02, -187500.02, 0.000, 0.000, 0.000, 17:49:24.258
137, -187500.02, 64604.05, -173431.88, -137879.45, -187500.02, -185283.64, -187500.02, -187500.02, 0.000, 0.000, 0.000, 17:49:24.258
138, -187500.02, 64609.28, -173433.42, -137880.63, -187500.02, -185285.34, -187500.02, -187500.02, 0.000, 0.000, 0.000, 17:49:24.268
139, -187500.02, 64611.20, -173430.38, -137876.69, -187500.02, -185282.16, -187500.02, -187500.02, 0.000, 0.000, 0.000, 17:49:24.268
140, -187500.02, 64617.08, -173429.77, -137875.55, -187500.02, -185281.69, -187500.02, -187500.02, 0.000, 0.000, 0.000, 17:49:24.269
141, -187500.02, 64625.21, -173429.39, -137874.83, -187500.02, -185281.45, -187500.02, -187500.02, 0.000, 0.000, 0.000, 17:49:24.269
142, -187500.02, 64636.66, -173432.20, -137876.70, -187500.02, -185284.27, -187500.02, -187500.02, 0.000, 0.000, 0.000, 17:49:24.269
143, -187500.02, 64645.51, -173434.08, -137878.16, -187500.02, -185286.33, -187500.02, -187500.02, 0.000, 0.000, 0.000, 17:49:24.269
144, -187500.02, 64647.97, -173432.50, -137876.02, -187500.02, -185284.69, -187500.02, -187500.02, 0.000, 0.000, 0.000, 17:49:24.269
145, -187500.02, 64645.00, -173427.67, -137870.56, -187500.02, -185279.84, -187500.02, -187500.02, 0.000, 0.000, 0.000, 17:49:24.269
146, -187500.02, 64642.34, -173425.28, -137867.61, -187500.02, -185277.25, -187500.02, -187500.02, 0.000, 0.000, 0.000, 17:49:24.269
147, -187500.02, 64643.12, -173429.33, -137870.70, -187500.02, -185281.36, -187500.02, -187500.02, 0.000, 0.000, 0.000, 17:49:24.269
148, -187500.02, 64637.31, -173429.38, -137870.00, -187500.02, -185281.31, -187500.02, -187500.02, 0.000, 0.000, 0.000, 17:49:24.278
149, -187500.02, 64629.42, -173428.75, -137868.64, -187500.02, -185280.47, -187500.02, -187500.02, 0.000, 0.000, 0.000, 17:49:24.278
150, -187500.02, 64622.98, -173430.11, -137868.95, -187500.02, -185281.58, -187500.02, -187500.02, 0.000, 0.000, 0.000, 17:49:24.278
151, -187500.02, 64612.21, -173428.34, -137866.67, -187500.02, -185279.89, -187500.02, -187500.02, 0.000, 0.000, 0.000, 17:49:24.279
152, -187500.02, 64602.37, -173429.06, -137866.67, -187500.02, -185280.55, -187500.02, -187500.02, 0.000, 0.000, 0.000, 17:49:24.279
153, -187500.02, 64591.69, -173426.73, -137863.50, -187500.02, -185278.08, -187500.02, -187500.02, 0.000, 0.000, 0.000, 17:49:24.279
154, -187500.02, 64585.88, -173427.00, -137862.88, -187500.02, -185278.28, -187500.02, -187500.02, 0.000, 0.000, 0.000, 17:49:24.279
155, -187500.02, 64581.21, -173425.48, -137860.69, -187500.02, -185276.69, -187500.02, -187500.02, 0.000, 0.000, 0.000, 17:49:24.279
156, -187500.02, 64578.84, -173424.36, -137858.80, -187500.02, -185275.41, -187500.02, -187500.02, 0.000, 0.000, 0.000, 17:49:24.279
157, -187500.02, 64579.26, -173423.14, -137856.91, -187500.02, -185274.25, -187500.02, -187500.02, 0.000, 0.000, 0.000, 17:49:24.279
158, -187500.02, 64582.77, -173422.70, -137856.08, -187500.02, -185273.88, -187500.02, -187500.02, 0.000, 0.000, 0.000, 17:49:24.296
159, -187500.02, 64588.43, -173423.20, -137855.92, -187500.02, -185274.56, -187500.02, -187500.02, 0.000, 0.000, 0.000, 17:49:24.297
160, -187500.02, 64593.86, -173422.27, -137854.67, -187500.02, -185273.80, -187500.02, -187500.02, 0.000, 0.000, 0.000, 17:49:24.297
161, -187500.02, 64600.99, -173421.08, -137852.80, -187500.02, -185272.47, -187500.02, -187500.02, 0.000, 0.000, 0.000, 17:49:24.297
162, -187500.02, 64611.25, -173422.59, -137853.58, -187500.02, -185273.92, -187500.02, -187500.02, 0.000, 0.000, 0.000, 17:49:24.297
163, -187500.02, 64617.41, -173421.84, -137852.17, -187500.02, -185273.25, -187500.02, -187500.02, 0.000, 0.000, 0.000, 17:49:24.297
164, -187500.02, 64621.02, -173421.08, -137850.84, -187500.02, -185272.47, -187500.02, -187500.02, 0.000, 0.000, 0.000, 17:49:24.297
165, -187500.02, 64620.19, -173418.44, -137847.61, -187500.02, -185269.84, -187500.02, -187500.02, 0.000, 0.000, 0.000, 17:49:24.297
166, -187500.02, 64620.63, -173419.25, -137847.70, -187500.02, -185270.70, -187500.02, -187500.02, 0.000, 0.000, 0.000, 17:49:24.297
167, -187500.02, 64619.09, -173420.52, -137848.36, -187500.02, -185272.13, -187500.02, -187500.02, 0.000, 0.000, 0.000, 17:49:24.297
168, -187500.02, 64612.43, -173419.41, -137846.47, -187500.02, -185270.77, -187500.02, -187500.02, 0.000, 0.000, 0.000, 17:49:24.301
169, -187500.02, 64604.21, -173418.28, -137844.50, -187500.02, -185269.45, -187500.02, -187500.02, 0.000, 0.000, 0.000, 17:49:24.301
170, -187500.02, 64596.38, -173418.06, -137843.63, -187500.02, -185269.30, -187500.02, -187500.02, 0.000, 0.000, 0.000, 17:49:24.301
171, -187500.02, 64585.43, -173416.31, -137841.23, -187500.02, -185267.36, -187500.02, -187500.02, 0.000, 0.000, 0.000, 17:49:24.301
172, -187500.02, 64576.27, -173417.52, -137841.55, -187500.02, -185268.47, -187500.02, -187500.02, 0.000, 0.000, 0.000, 17:49:24.301
173, -187500.02, 64568.80, -173418.55, -137841.69, -187500.02, -185269.45, -187500.02, -187500.02, 0.000, 0.000, 0.000, 17:49:24.301
174, -187500.02, 64561.65, -173417.61, -137839.98, -187500.02, -185268.44, -187500.02, -187500.02, 0.000, 0.000, 0.000, 17:49:24.301
175, -187500.02, 64558.07, -173417.17, -137839.00, -187500.02, -185267.95, -187500.02, -187500.02, 0.000, 0.000, 0.000, 17:49:24.301
176, -187500.02, 64555.32, -173415.83, -137836.92, -187500.02, -185266.52, -187500.02, -187500.02, 0.000, 0.000, 0.000, 17:49:24.301
177, -187500.02, 64555.84, -173415.11, -137835.48, -187500.02, -185265.84, -187500.02, -187500.02, 0.000, 0.000, 0.000, 17:49:24.301
178, -187500.02, 64560.60, -173416.14, -137835.77, -187500.02, -185266.72, -187500.02, -187500.02, 0.000, 0.000, 0.000, 17:49:24.301
179, -187500.02, 64566.68, -173416.94, -137835.92, -187500.02, -185267.61, -187500.02, -187500.02, 0.000, 0.000, 0.000, 17:49:24.306
180, -187500.02, 64571.66, -173415.53, -137834.06, -187500.02, -185266.55, -187500.02, -187500.02, 0.000, 0.000, 0.000, 17:49:24.307
181, -187500.02, 64577.83, -173413.50, -137831.56, -187500.02, -185264.47, -187500.02, -187500.02, 0.000, 0.000, 0.000, 17:49:24.307
182, -187500.02, 64587.06, -173413.81, -137831.31, -187500.02, -185264.64, -187500.02, -187500.02, 0.000, 0.000, 0.000, 17:49:24.307
183, -187500.02, 64591.96, -173411.69, -137828.58, -187500.02, -185262.63, -187500.02, -187500.02, 0.000, 0.000, 0.000, 17:49:24.307
184, -187500.02, 64594.55, -173409.59, -137826.02, -187500.02, -185260.64, -187500.02, -187500.02, 0.000, 0.000, 0.000, 17:49:24.307
185, -187500.02, 64595.85, -173409.16, -137824.86, -187500.02, -185260.34, -187500.02, -187500.02, 0.000, 0.000, 0.000, 17:49:24.307
186, -187500.02, 64597.52, -173411.52, -137826.13, -187500.02, -185262.36, -187500.02, -187500.02, 0.000, 0.000, 0.000, 17:49:24.307
187, -187500.02, 64594.59, -173411.13, -137825.23, -187500.02, -185262.03, -187500.02, -187500.02, 0.000, 0.000, 0.000, 17:49:24.307
188, -187500.02, 64587.73, -173409.44, -137823.17, -187500.02, -185260.28, -187500.02, -187500.02, 0.000, 0.000, 0.000, 17:49:24.307
189, -187500.02, 64582.10, -173411.17, -137824.00, -187500.02, -185262.09, -187500.02, -187500.02, 0.000, 0.000, 0.000, 17:49:24.319
190, -187500.02, 64572.06, -173409.41, -137821.23, -187500.02, -185259.91, -187500.02, -187500.02, 0.000, 0.000, 0.000, 17:49:24.319
191, -187500.02, 64561.65, -173408.05, -137819.02, -187500.02, -185258.36, -187500.02, -187500.02, 0.000, 0.000, 0.000, 17:49:24.319
192, -187500.02, 64551.37, -173408.36, -137818.42, -187500.02, -185258.66, -187500.02, -187500.02, 0.000, 0.000, 0.000, 17:49:24.319
193, -187500.02, 64544.66, -173410.06, -137819.42, -187500.02, -185260.50, -187500.02, -187500.02, 0.000, 0.000, 0.000, 17:49:24.319
194, -187500.02, 64539.34, -173410.59, -137819.52, -187500.02, -185260.89, -187500.02, -187500.02, 0.000, 0.000, 0.000, 17:49:24.319
195, -187500.02, 64535.34, -173410.02, -137818.22, -187500.02, -185260.17, -187500.02, -187500.02, 0.000, 0.000, 0.000, 17:49:24.319
196, -187500.02, 64532.19, -173408.36, -137815.58, -187500.02, -185258.47, -187500.02, -187500.02, 0.000, 0.000, 0.000, 17:49:24.319
197, -187500.02, 64534.56, -173409.52, -137816.25, -187500.02, -185259.75, -187500.02, -187500.02, 0.000, 0.000, 0.000, 17:49:24.319
198, -187500.02, 64537.42, -173408.52, -137814.77, -187500.02, -185258.97, -187500.02, -187500.02, 0.000, 0.000, 0.000, 17:49:24.319
199, -187500.02, 64539.74, -173405.67, -137811.27, -187500.02, -185256.08, -187500.02, -187500.02, 0.000, 0.000, 0.000, 17:49:24.327
200, -187500.02, 64544.59, -173404.61, -137809.31, -187500.02, -185254.84, -187500.02, -187500.02, 0.000, 0.000, 0.000, 17:49:24.328
201, -187500.02, 64552.93, -173404.88, -137809.16, -187500.02, -185255.28, -187500.02, -187500.02, 0.000, 0.000, 0.000, 17:49:24.328
202, -187500.02, 64563.23, -173405.97, -137809.83, -187500.02, -185256.44, -187500.02, -187500.02, 0.000, 0.000, 0.000, 17:49:24.328
203, -187500.02, 64571.13, -173406.84, -137810.09, -187500.02, -185257.17, -187500.02, -187500.02, 0.000, 0.000, 0.000, 17:49:24.328
204, -187500.02, 64576.49, -173407.73, -137810.39, -187500.02, -185258.31, -187500.02, -187500.02, 0.000, 0.000, 0.000, 17:49:24.328
205, -187500.02, 64578.50, -173407.44, -137809.50, -187500.02, -185258.16, -187500.02, -187500.02, 0.000, 0.000, 0.000, 17:49:24.328
206, -187500.02, 64577.92, -173407.00, -137808.30, -187500.02, -185257.69, -187500.02, -187500.02, 0.000, 0.000, 0.000, 17:49:24.328
207, -187500.02, 64573.58, -173405.44, -137806.14, -187500.02, -185255.92, -187500.02, -187500.02, 0.000, 0.000, 0.000, 17:49:24.328
208, -187500.02, 64565.56, -173402.61, -137802.56, -187500.02, -185253.23, -187500.02, -187500.02, 0.000, 0.000, 0.000, 17:49:24.328
209, -187500.02, 64558.83, -173402.50, -137801.63, -187500.02, -185252.77, -187500.02, -187500.02, 0.000, 0.000, 0.000, 17:49:24.345
210, -187500.02, 64552.04, -173403.95, -137802.20, -187500.02, -185253.98, -187500.02, -187500.02, 0.000, 0.000, 0.000, 17:49:24.345
211, -187500.02, 64541.31, -173402.56, -137800.11, -187500.02, -185252.50, -187500.02, -187500.02, 0.000, 0.000, 0.000, 17:49:24.346
212, -187500.02, 64528.57, -173400.11, -137796.88, -187500.02, -185250.02, -187500.02, -187500.02, 0.000, 0.000, 0.000, 17:49:24.346
213, -187500.02, 64521.84, -173402.19, -137797.98, -187500.02, -185252.08, -187500.02, -187500.02, 0.000, 0.000, 0.000, 17:49:24.346
214, -187500.02, 64516.72, -173402.95, -137798.20, -187500.02, -185252.95, -187500.02, -187500.02, 0.000, 0.000, 0.000, 17:49:24.346
215, -187500.02, 64512.52, -173402.56, -137796.94, -187500.02, -185252.34, -187500.02, -187500.02, 0.000, 0.000, 0.000, 17:49:24.346
216, -187500.02, 64511.89, -173403.36, -137797.11, -187500.02, -185253.00, -187500.02, -187500.02, 0.000, 0.000, 0.000, 17:49:24.346
217, -187500.02, 64510.78, -173400.94, -137794.08, -187500.02, -185250.61, -187500.02, -187500.02, 0.000, 0.000, 0.000, 17:49:24.346
218, -187500.02, 64512.65, -173399.13, -137791.73, -187500.02, -185248.86, -187500.02, -187500.02, 0.000, 0.000, 0.000, 17:49:24.346
219, -187500.02, 64517.26, -173398.72, -137790.55, -187500.02, -185248.50, -187500.02, -187500.02, 0.000, 0.000, 0.000, 17:49:24.348
220, -187500.02, 64523.40, -173398.84, -137790.05, -187500.02, -185248.69, -187500.02, -187500.02, 0.000, 0.000, 0.000, 17:49:24.349
221, -187500.02, 64529.02, -173396.27, -137787.25, -187500.02, -185246.25, -187500.02, -187500.02, 0.000, 0.000, 0.000, 17:49:24.349
222, -187500.02, 64538.96, -173397.09, -137787.70, -187500.02, -185247.36, -187500.02, -187500.02, 0.000, 0.000, 0.000, 17:49:24.349
223, -187500.02, 64547.05, -173398.14, -137788.20, -187500.02, -185248.55, -187500.02, -187500.02, 0.000, 0.000, 0.000, 17:49:24.349
224, -187500.02, 64552.13, -173398.61, -137787.86, -187500.02, -185248.81, -187500.02, -187500.02, 0.000, 0.000, 0.000, 17:49:24.349
225, -187500.02, 64553.36, -173397.66, -137786.16, -187500.02, -185247.92, -187500.02, -187500.02, 0.000, 0.000, 0.000, 17:49:24.349
226, -187500.02, 64552.71, -173396.88, -137784.64, -187500.02, -185247.03, -187500.02, -187500.02, 0.000, 0.000, 0.000, 17:49:24.349
227, -187500.02, 64550.23, -173396.98, -137784.17, -187500.02, -185247.08, -187500.02, -187500.02, 0.000, 0.000, 0.000, 17:49:24.349
228, -187500.02, 64545.06, -173397.16, -137783.61, -187500.02, -185247.25, -187500.02, -187500.02, 0.000, 0.000, 0.000, 17:49:24.349
229, -187500.02, 64537.48, -173396.53, -137782.31, -187500.02, -185246.56, -187500.02, -187500.02, 0.000, 0.000, 0.000, 17:49:24.359
230, -187500.02, 64530.38, -173397.23, -137781.98, -187500.02, -185247.11, -187500.02, -187500.02, 0.000, 0.000, 0.000, 17:49:24.359
231, -187500.02, 64521.55, -173397.50, -137781.52, -187500.02, -185247.11, -187500.02, -187500.02, 0.000, 0.000, 0.000, 17:49:24.359
232, -187500.02, 64509.90, -173396.05, -137779.44, -187500.02, -185245.58, -187500.02, -187500.02, 0.000, 0.000, 0.000, 17:49:24.360
233, -187500.02, 64497.52, -173392.67, -137775.02, -187500.02, -185241.94, -187500.02, -187500.02, 0.000, 0.000, 0.000, 17:49:24.360
234, -187500.02, 64491.89, -173393.06, -137774.81, -187500.02, -185242.33, -187500.02, -187500.02, 0.000, 0.000, 0.000, 17:49:24.360
235, -187500.02, 64489.47, -173394.23, -137775.30, -187500.02, -185243.42, -187500.02, -187500.02, 0.000, 0.000, 0.000, 17:49:24.360
236, -187500.02, 64487.20, -173393.89, -137774.22, -187500.02, -185243.25, -187500.02, -187500.02, 0.000, 0.000, 0.000, 17:49:24.360
237, -187500.02, 64484.63, -173390.23, -137770.05, -187500.02, -185239.55, -187500.02, -187500.02, 0.000, 0.000, 0.000, 17:49:24.360
238, -187500.02, 64487.42, -173389.53, -137768.70, -187500.02, -185238.78, -187500.02, -187500.02, 0.000, 0.000, 0.000, 17:49:24.360
239, -187500.02, 64491.51, -173388.75, -137767.25, -187500.02, -185237.97, -187500.02, -187500.02, 0.000, 0.000, 0.000, 17:49:24.371
240, -187500.02, 64496.65, -173387.92, -137765.78, -187500.02, -185237.22, -187500.02, -187500.02, 0.000, 0.000, 0.000, 17:49:24.371
241, -187500.02, 64505.07, -173388.27, -137765.55, -187500.02, -185237.69, -187500.02, -187500.02, 0.000, 0.000, 0.000, 17:49:24.371
242, -187500.02, 64514.60, -173388.53, -137765.44, -187500.02, -185238.20, -187500.02, -187500.02, 0.000, 0.000, 0.000, 17:49:24.371
243, -187500.02, 64521.01, -173388.08, -137764.13, -187500.02, -185237.70, -187500.02, -187500.02, 0.000, 0.000, 0.000, 17:49:24.371
244, -187500.02, 64524.93, -173387.11, -137762.42, -187500.02, -185236.86, -187500.02, -187500.02, 0.000, 0.000, 0.000, 17:49:24.371
245, -187500.02, 64526.64, -173386.72, -137761.31, -187500.02, -185236.25, -187500.02, -187500.02, 0.000, 0.000, 0.000, 17:49:24.371
246, -187500.02, 64524.43, -173384.00, -137758.28, -187500.02, -185233.53, -187500.02, -187500.02, 0.000, 0.000, 0.000, 17:49:24.371
247, -187500.02, 64519.05, -173380.98, -137754.72, -187500.02, -185230.44, -187500.02, -187500.02, 0.000, 0.000, 0.000, 17:49:24.371
248, -187500.02, 64518.66, -173386.31, -137759.00, -187500.02, -185235.72, -187500.02, -187500.02, 0.000, 0.000, 0.000, 17:49:24.372
249, -187500.02, 64512.63, -173387.11, -137759.05, -187500.02, -185236.48, -187500.02, -187500.02, 0.000, 0.000, 0.000, 17:49:24.376
250, -187500.02, 64500.89, -173383.02, -137754.20, -187500.02, -185232.19, -187500.02, -187500.02, 0.000, 0.000, 0.000, 17:49:24.376
251, -187500.02, 64491.11, -173382.55, -137752.98, -187500.02, -185231.41, -187500.02, -187500.02, 0.000, 0.000, 0.000, 17:49:24.376
252, -187500.02, 64481.27, -173382.77, -137752.55, -187500.02, -185231.45, -187500.02, -187500.02, 0.000, 0.000, 0.000, 17:49:24.376
253, -187500.02, 64472.38, -173382.88, -137751.50, -187500.02, -185231.45, -187500.02, -187500.02, 0.000, 0.000, 0.000, 17:49:24.376
254, -187500.02, 64465.69, -173382.45, -137750.38, -187500.02, -185231.00, -187500.02, -187500.02, 0.000, 0.000, 0.000, 17:49:24.376
255, -187500.02, 64461.31, -173381.94, -137749.23, -187500.02, -185230.53, -187500.02, -187500.02, 0.000, 0.000, 0.000, 17:49:24.376
0, -187500.02, 64457.64, -173380.00, -137746.75, -187500.02, -185228.55, -187500.02, -187500.02, 0.000, 0.000, 0.000, 17:49:24.376
1, -187500.02, 64456.82, -173378.50, -137744.34, -187500.02, -185227.02, -187500.02, -187500.02, 0.000, 0.000, 0.000, 17:49:24.377
2, -187500.02, 64459.32, -173377.47, -137742.78, -187500.02, -185226.03, -187500.02, -187500.02, 0.000, 0.000, 0.000, 17:49:24.377
3, -187500.02, 64460.86, -173373.63, -137738.42, -187500.02, -185222.44, -187500.02, -187500.02, 0.000, 0.000, 0.000, 17:49:24.395
4, -187500.02, 64470.72, -173377.38, -137741.61, -187500.02, -185226.22, -187500.02, -187500.02, 0.000, 0.000, 0.000, 17:49:24.395
5, -187500.02, 64480.38, -173379.48, -137743.27, -187500.02, -185228.31, -187500.02, -187500.02, 0.000, 0.000, 0.000, 17:49:24.395
6, -187500.02, 64489.36, -173379.14, -137742.33, -187500.02, -185228.03, -187500.02, -187500.02, 0.000, 0.000, 0.000, 17:49:24.395
7, -187500.02, 64498.48, -173380.84, -137743.33, -187500.02, -185229.95, -187500.02, -187500.02, 0.000, 0.000, 0.000, 17:49:24.395
8, -187500.02, 64501.43, -173378.47, -137740.44, -187500.02, -185227.36, -187500.02, -187500.02, 0.000, 0.000, 0.000, 17:49:24.395
9, -187500.02, 64503.24, -173378.50, -137739.89, -187500.02, -185227.53, -187500.02, -187500.02, 0.000, 0.000, 0.000, 17:49:24.395
10, -187500.02, 64502.19, -173377.42, -137738.13, -187500.02, -185226.52, -187500.02, -187500.02, 0.000, 0.000, 0.000, 17:49:24.395
11, -187500.02, 64500.74, -173378.19, -137738.17, -187500.02, -185227.22, -187500.02, -187500.02, 0.000, 0.000, 0.000, 17:49:24.396
12, -187500.02, 64498.01, -173380.67, -137739.77, -187500.02, -185229.59, -187500.02, -187500.02, 0.000, 0.000, 0.000, 17:49:24.396
13, -187500.02, 64493.34, -173382.81, -137741.19, -187500.02, -185231.50, -187500.02, -187500.02, 0.000, 0.000, 0.000, 17:49:24.397
14, -187500.02, 64482.84, -173380.06, -137737.77, -187500.02, -185228.66, -187500.02, -187500.02, 0.000, 0.000, 0.000, 17:49:24.397
15, -187500.02, 64471.39, -173377.52, -137734.33, -187500.02, -185225.80, -187500.02, -187500.02, 0.000, 0.000, 0.000, 17:49:24.397
16, -187500.02, 64459.41, -173375.45, -137731.59, -187500.02, -185223.88, -187500.02, -187500.02, 0.000, 0.000, 0.000, 17:49:24.397
17, -187500.02, 64450.79, -173376.33, -137731.42, -187500.02, -185224.45, -187500.02, -187500.02, 0.000, 0.000, 0.000, 17:49:24.397
18, -187500.02, 64441.35, -173373.13, -137727.73, -187500.02, -185221.25, -187500.02, -187500.02, 0.000, 0.000, 0.000, 17:49:24.397
19, -187500.02, 64435.25, -173370.86, -137724.78, -187500.02, -185219.05, -187500.02, -187500.02, 0.000, 0.000, 0.000, 17:49:24.398
20, -187500.02, 64432.45, -173370.00, -137722.89, -187500.02, -185218.13, -187500.02, -187500.02, 0.000, 0.000, 0.000, 17:49:24.398
21, -187500.02, 64432.23, -173369.05, -137721.36, -187500.02, -185217.28, -187500.02, -187500.02, 0.000, 0.000, 0.000, 17:49:24.398
22, -187500.02, 64435.38, -173368.70, -137720.53, -187500.02, -185216.92, -187500.02, -187500.02, 0.000, 0.000, 0.000, 17:49:24.398
23, -187500.02, 64441.02, -173369.56, -137720.61, -187500.02, -185217.70, -187500.02, -187500.02, 0.000, 0.000, 0.000, 17:49:24.406
24, -187500.02, 64448.21, -173370.77, -137721.41, -187500.02, -185218.86, -187500.02, -187500.02, 0.000, 0.000, 0.000, 17:49:24.406
25, -187500.02, 64456.91, -173371.44, -137721.86, -187500.02, -185219.98, -187500.02, -187500.02, 0.000, 0.000, 0.000, 17:49:24.406
26, -187500.02, 64467.10, -173372.63, -137722.33, -187500.02, -185220.81, -187500.02, -187500.02, 0.000, 0.000, 0.000, 17:49:24.406
27, -187500.02, 64475.41, -173373.58, -137722.64, -187500.02, -185222.06, -187500.02, -187500.02, 0.000, 0.000, 0.000, 17:49:24.406
28, -187500.02, 64480.00, -173373.13, -137721.44, -187500.02, -185221.48, -187500.02, -187500.02, 0.000, 0.000, 0.000, 17:49:24.406
29, -187500.02, 64479.53, -173370.00, -137717.77, -187500.02, -185218.17, -187500.02, -187500.02, 0.000, 0.000, 0.000, 17:49:24.406
30, -187500.02, 64478.88, -173369.11, -137716.33, -187500.02, -185217.41, -187500.02, -187500.02, 0.000, 0.000, 0.000, 17:49:24.406
31, -187500.02, 64476.33, -173369.05, -137715.44, -187500.02, -185217.39, -187500.02, -187500.02, 0.000, 0.000, 0.000, 17:49:24.406
32, -187500.02, 64471.35, -173368.91, -137714.48, -187500.02, -185217.30, -187500.02, -187500.02, 0.000, 0.000, 0.000, 17:49:24.406
33, -187500.02, 64463.75, -173368.22, -137712.95, -187500.02, -185216.66, -187500.02, -187500.02, 0.000, 0.000, 0.000, 17:49:24.417
34, -187500.02, 64455.41, -173367.88, -137711.70, -187500.02, -185215.95, -187500.02, -187500.02, 0.000, 0.000, 0.000, 17:49:24.417
35, -187500.02, 64445.87, -173366.83, -137710.03, -187500.02, -185214.84, -187500.02, -187500.02, 0.000, 0.000, 0.000, 17:49:24.417
36, -187500.02, 64432.50, -173363.44, -137705.97, -187500.02, -185211.06, -187500.02, -187500.02, 0.000, 0.000, 0.000, 17:49:24.417
37, -187500.02, 64425.93, -173366.36, -137707.91, -187500.02, -185213.95, -187500.02, -187500.02, 0.000, 0.000, 0.000, 17:49:24.417
38, -187500.02, 64418.29, -173365.36, -137706.23, -187500.02, -185213.00, -187500.02, -187500.02, 0.000, 0.000, 0.000, 17:49:24.417
39, -187500.02, 64413.14, -173364.03, -137704.11, -187500.02, -185211.59, -187500.02, -187500.02, 0.000, 0.000, 0.000, 17:49:24.417
40, -187500.02, 64410.89, -173363.86, -137703.08, -187500.02, -185211.22, -187500.02, -187500.02, 0.000, 0.000, 0.000, 17:49:24.417
41, -187500.02, 64412.61, -173365.17, -137703.95, -187500.02, -185212.72, -187500.02, -187500.02, 0.000, 0.000, 0.000, 17:49:24.417
42, -187500.02, 64416.74, -173365.75, -137703.89, -187500.02, -185213.28, -187500.02, -187500.02, 0.000, 0.000, 0.000, 17:49:24.417
43, -187500.02, 64420.43, -173364.23, -137701.78, -187500.02, -185211.73, -187500.02, -187500.02, 0.000, 0.000, 0.000, 17:49:24.435
44, -187500.02, 64426.26, -173364.19, -137701.14, -187500.02, -185211.72, -187500.02, -187500.02, 0.000, 0.000, 0.000, 17:49:24.435
45, -187500.02, 64434.80, -173365.05, -137701.50, -187500.02, -185212.78, -187500.02, -187500.02, 0.000, 0.000, 0.000, 17:49:24.435
46, -187500.02, 64443.41, -173364.39, -137700.42, -187500.02, -185212.05, -187500.02, -187500.02, 0.000, 0.000, 0.000, 17:49:24.435
47, -187500.02, 64450.27, -173363.81, -137699.23, -187500.02, -185211.72, -187500.02, -187500.02, 0.000, 0.000, 0.000, 17:49:24.435
48, -187500.02, 64452.86, -173361.33, -137696.06, -187500.02, -185209.28, -187500.02, -187500.02, 0.000, 0.000, 0.000, 17:49:24.435
49, -187500.02, 64455.63, -173361.70, -137695.61, -187500.02, -185209.50, -187500.02, -187500.02, 0.000, 0.000, 0.000, 17:49:24.435
50, -187500.02, 64457.63, -173363.44, -137696.80, -187500.02, -185211.33, -187500.02, -187500.02, 0.000, 0.000, 0.000, 17:49:24.435
51, -187500.02, 64454.54, -173362.19, -137695.09, -187500.02, -185210.19, -187500.02, -187500.02, 0.000, 0.000, 0.000, 17:49:24.435
52, -187500.02, 64450.34, -173363.08, -137695.19, -187500.02, -185210.92, -187500.02, -187500.02, 0.000, 0.000, 0.000, 17:49:24.435
53, -187500.02, 64443.50, -173362.98, -137694.09, -187500.02, -185210.61, -187500.02, -187500.02, 0.000, 0.000, 0.000, 17:49:24.448
54, -187500.02, 64435.45, -173362.42, -137692.94, -187500.02, -185209.98, -187500.02, -187500.02, 0.000, 0.000, 0.000, 17:49:24.448
55, -187500.02, 64426.13, -173361.73, -137691.77, -187500.02, -185209.16, -187500.02, -187500.02, 0.000, 0.000, 0.000, 17:49:24.448
56, -187500.02, 64414.46, -173359.83, -137689.05, -187500.02, -185207.06, -187500.02, -187500.02, 0.000, 0.000, 0.000, 17:49:24.448
57, -187500.02, 64403.91, -173358.92, -137687.02, -187500.02, -185206.03, -187500.02, -187500.02, 0.000, 0.000, 0.000, 17:49:24.448
58, -187500.02, 64397.18, -173358.97, -137686.27, -187500.02, -185205.86, -187500.02, -187500.02, 0.000, 0.000, 0.000, 17:49:24.448
59, -187500.02, 64391.93, -173357.69, -137684.42, -187500.02, -185204.58, -187500.02, -187500.02, 0.000, 0.000, 0.000, 17:49:24.448
60, -187500.02, 64388.71, -173356.34, -137682.41, -187500.02, -185203.47, -187500.02, -187500.02, 0.000, 0.000, 0.000, 17:49:24.448
61, -187500.02, 64388.54, -173355.86, -137681.08, -187500.02, -185202.88, -187500.02, -187500.02, 0.000, 0.000, 0.000, 17:49:24.448
62, -187500.02, 64389.74, -173353.80, -137678.50, -187500.02, -185200.89, -187500.02, -187500.02, 0.000, 0.000, 0.000, 17:49:24.448
63, -187500.02, 64395.80, -173354.92, -137679.13, -187500.02, -185202.03, -187500.02, -187500.02, 0.000, 0.000, 0.000, 17:49:24.448
64, -187500.02, 64403.24, -173356.55, -137680.17, -187500.02, -185203.67, -187500.02, -187500.02, 0.000, 0.000, 0.000, 17:49:24.448
65, -187500.02, 64410.66, -173356.45, -137679.31, -187500.02, -185203.63, -187500.02, -187500.02, 0.000, 0.000, 0.000, 17:49:24.448
66, -187500.02, 64416.36, -173352.95, -137675.50, -187500.02, -185200.20, -187500.02, -187500.02, 0.000, 0.000, 0.000, 17:49:24.448
67, -187500.02, 64426.87, -173355.86, -137677.75, -187500.02, -185203.13, -187500.02, -187500.02, 0.000, 0.000, 0.000, 17:49:24.448
68, -187500.02, 64435.79, -173359.41, -137680.75, -187500.02, -185206.89, -187500.02, -187500.02, 0.000, 0.000, 0.000, 17:49:24.449
69, -187500.02, 64436.12, -173357.08, -137677.88, -187500.02, -185204.69, -187500.02, -187500.02, 0.000, 0.000, 0.000, 17:49:24.449
70, -187500.02, 64431.89, -173352.09, -137672.25, -187500.02, -185199.53, -187500.02, -187500.02, 0.000, 0.000, 0.000, 17:49:24.449
71, -187500.02, 64430.53, -173353.17, -137672.38, -187500.02, -185200.48, -187500.02, -187500.02, 0.000, 0.000, 0.000, 17:49:24.449
72, -187500.02, 64423.52, -173351.09, -137669.63, -187500.02, -185198.34, -187500.02, -187500.02, 0.000, 0.000, 0.000, 17:49:24.449
73, -187500.02, 64414.86, -173349.02, -137666.83, -187500.02, -185196.25, -187500.02, -187500.02, 0.000, 0.000, 0.000, 17:49:24.449
74, -187500.02, 64408.02, -173349.78, -137666.94, -187500.02, -185196.92, -187500.02, -187500.02, 0.000, 0.000, 0.000, 17:49:24.458
75, -187500.02, 64397.88, -173348.39, -137664.64, -187500.02, -185195.31, -187500.02, -187500.02, 0.000, 0.000, 0.000, 17:49:24.458
76, -187500.02, 64388.80, -173349.06, -137664.64, -187500.02, -185195.86, -187500.02, -187500.02, 0.000, 0.000, 0.000, 17:49:24.458
77, -187500.02, 64380.96, -173350.67, -137665.47, -187500.02, -185197.50, -187500.02, -187500.02, 0.000, 0.000, 0.000, 17:49:24.458
78, -187500.02, 64374.27, -173350.94, -137664.77, -187500.02, -185197.70, -187500.02, -187500.02, 0.000, 0.000, 0.000, 17:49:24.458
79, -187500.02, 64368.91, -173349.89, -137662.98, -187500.02, -185196.52, -187500.02, -187500.02, 0.000, 0.000, 0.000, 17:49:24.458
80, -187500.02, 64364.82, -173347.66, -137660.08, -187500.02, -185194.20, -187500.02, -187500.02, 0.000, 0.000, 0.000, 17:49:24.459
81, -187500.02, 64364.28, -173347.05, -137658.83, -187500.02, -185193.66, -187500.02, -187500.02, 0.000, 0.000, 0.000, 17:49:24.459
82, -187500.02, 64367.75, -173347.52, -137658.67, -187500.02, -185194.13, -187500.02, -187500.02, 0.000, 0.000, 0.000, 17:49:24.459
83, -187500.02, 64373.20, -173347.98, -137658.59, -187500.02, -185194.67, -187500.02, -187500.02, 0.000, 0.000, 0.000, 17:49:24.459
84, -187500.02, 64379.19, -173348.36, -137658.27, -187500.02, -185194.81, -187500.02, -187500.02, 0.000, 0.000, 0.000, 17:49:24.472
85, -187500.02, 64385.52, -173347.23, -137656.55, -187500.02, -185193.94, -187500.02, -187500.02, 0.000, 0.000, 0.000, 17:49:24.472
86, -187500.02, 64392.04, -173344.20, -137653.30, -187500.02, -185191.06, -187500.02, -187500.02, 0.000, 0.000, 0.000, 17:49:24.472
87, -187500.02, 64401.25, -173345.78, -137654.13, -187500.02, -185192.44, -187500.02, -187500.02, 0.000, 0.000, 0.000, 17:49:24.472
88, -187500.02, 64407.45, -173346.80, -137654.27, -187500.02, -185193.56, -187500.02, -187500.02, 0.000, 0.000, 0.000, 17:49:24.472
89, -187500.02, 64410.19, -173346.88, -137653.91, -187500.02, -185193.83, -187500.02, -187500.02, 0.000, 0.000, 0.000, 17:49:24.472
90, -187500.02, 64407.58, -173343.81, -137650.23, -187500.02, -185190.77, -187500.02, -187500.02, 0.000, 0.000, 0.000, 17:49:24.472
91, -187500.02, 64404.07, -173342.11, -137647.67, -187500.02, -185188.73, -187500.02, -187500.02, 0.000, 0.000, 0.000, 17:49:24.472
92, -187500.02, 64396.85, -173339.20, -137644.27, -187500.02, -185185.97, -187500.02, -187500.02, 0.000, 0.000, 0.000, 17:49:24.472
93, -187500.02, 64390.14, -173339.03, -137643.30, -187500.02, -185185.63, -187500.02, -187500.02, 0.000, 0.000, 0.000, 17:49:24.472
94, -187500.02, 64380.35, -173336.91, -137640.27, -187500.02, -185183.22, -187500.02, -187500.02, 0.000, 0.000, 0.000, 17:49:24.477
95, -187500.02, 64373.16, -173338.67, -137641.09, -187500.02, -185184.89, -187500.02, -187500.02, 0.000, 0.000, 0.000, 17:49:24.477
96, -187500.02, 64363.61, -173338.95, -137640.86, -187500.02, -185185.11, -187500.02, -187500.02, 0.000, 0.000, 0.000, 17:49:24.477
97, -187500.02, 64355.54, -173340.31, -137641.34, -187500.02, -185186.41, -187500.02, -187500.02, 0.000, 0.000, 0.000, 17:49:24.477
98, -187500.02, 64350.54, -173342.41, -137642.47, -187500.02, -185188.47, -187500.02, -187500.02, 0.000, 0.000, 0.000, 17:49:24.477
99, -187500.02, 64346.56, -173342.69, -137642.19, -187500.02, -185188.80, -187500.02, -187500.02, 0.000, 0.000, 0.000, 17:49:24.477
100, -187500.02, 64343.09, -173341.17, -137639.94, -187500.02, -185187.19, -187500.02, -187500.02, 0.000, 0.000, 0.000, 17:49:24.477
101, -187500.02, 64343.25, -173341.34, -137639.33, -187500.02, -185187.17, -187500.02, -187500.02, 0.000, 0.000, 0.000, 17:49:24.477
102, -187500.02, 64346.94, -173342.00, -137639.64, -187500.02, -185187.92, -187500.02, -187500.02, 0.000, 0.000, 0.000, 17:49:24.477
103, -187500.02, 64352.30, -173342.47, -137639.48, -187500.02, -185188.58, -187500.02, -187500.02, 0.000, 0.000, 0.000, 17:49:24.477
104, -187500.02, 64356.32, -173340.80, -137637.17, -187500.02, -185186.86, -187500.02, -187500.02, 0.000, 0.000, 0.000, 17:49:24.501
105, -187500.02, 64362.61, -173339.81, -137635.58, -187500.02, -185185.92, -187500.02, -187500.02, 0.000, 0.000, 0.000, 17:49:24.501
106, -187500.02, 64369.76, -173337.70, -137633.14, -187500.02, -185183.84, -187500.02, -187500.02, 0.000, 0.000, 0.000, 17:49:24.501
107, -187500.02, 64378.34, -173338.39, -137633.23, -187500.02, -185184.69, -187500.02, -187500.02, 0.000, 0.000, 0.000, 17:49:24.501
108, -187500.02, 64383.21, -173337.89, -137632.00, -187500.02, -185184.36, -187500.02, -187500.02, 0.000, 0.000, 0.000, 17:49:24.501
109, -187500.02, 64382.81, -173334.83, -137628.27, -187500.02, -185181.42, -187500.02, -187500.02, 0.000, 0.000, 0.000, 17:49:24.501
110, -187500.02, 64382.50, -173333.61, -137626.44, -187500.02, -185180.11, -187500.02, -187500.02, 0.000, 0.000, 0.000, 17:49:24.501
111, -187500.02, 64380.93, -173333.77, -137626.14, -187500.02, -185180.08, -187500.02, -187500.02, 0.000, 0.000, 0.000, 17:49:24.501
112, -187500.02, 64378.81, -173336.70, -137628.11, -187500.02, -185183.02, -187500.02, -187500.02, 0.000, 0.000, 0.000, 17:49:24.501
113, -187500.02, 64371.43, -173335.97, -137626.55, -187500.02, -185182.03, -187500.02, -187500.02, 0.000, 0.000, 0.000, 17:49:24.501
114, -187500.02, 64361.29, -173333.39, -137623.02, -187500.02, -185179.30, -187500.02, -187500.02, 0.000, 0.000, 0.000, 17:49:24.501
115, -187500.02, 64351.34, -173331.72, -137620.77, -187500.02, -185177.56, -187500.02, -187500.02, 0.000, 0.000, 0.000, 17:49:24.501
116, -187500.02, 64340.48, -173330.48, -137618.84, -187500.02, -185176.39, -187500.02, -187500.02, 0.000, 0.000, 0.000, 17:49:24.501
117, -187500.02, 64331.45, -173330.98, -137618.55, -187500.02, -185176.73, -187500.02, -187500.02, 0.000, 0.000, 0.000, 17:49:24.501
118, -187500.02, 64324.45, -173331.45, -137618.14, -187500.02, -185177.05, -187500.02, -187500.02, 0.000, 0.000, 0.000, 17:49:24.501
119, -187500.02, 64319.64, -173331.06, -137616.91, -187500.02, -185176.39, -187500.02, -187500.02, 0.000, 0.000, 0.000, 17:49:24.501
120, -187500.02, 64317.05, -173330.47, -137615.48, -187500.02, -185175.86, -187500.02, -187500.02, 0.000, 0.000, 0.000, 17:49:24.501
121, -187500.02, 64315.78, -173329.22, -137613.67, -187500.02, -185174.81, -187500.02, -187500.02, 0.000, 0.000, 0.000, 17:49:24.501
122, -187500.02, 64318.15, -173328.94, -137612.67, -187500.02, -185174.34, -187500.02, -187500.02, 0.000, 0.000, 0.000, 17:49:24.501
123, -187500.02, 64325.26, -173331.36, -137614.50, -187500.02, -185176.73, -187500.02, -187500.02, 0.000, 0.000, 0.000, 17:49:24.501
124, -187500.02, 64328.03, -173328.30, -137611.02, -187500.02, -185173.94, -187500.02, -187500.02, 0.000, 0.000, 0.000, 17:49:24.508
125, -187500.02, 64334.53, -173327.38, -137609.56, -187500.02, -185173.06, -187500.02, -187500.02, 0.000, 0.000, 0.000, 17:49:24.508
126, -187500.02, 64344.81, -173328.73, -137610.44, -187500.02, -185174.52, -187500.02, -187500.02, 0.000, 0.000, 0.000, 17:49:24.508
127, -187500.02, 64354.25, -173329.84, -137610.97, -187500.02, -185175.66, -187500.02, -187500.02, 0.000, 0.000, 0.000, 17:49:24.508
128, -187500.02, 64359.97, -173330.16, -137610.61, -187500.02, -185176.06, -187500.02, -187500.02, 0.000, 0.000, 0.000, 17:49:24.508
129, -187500.02, 64363.41, -173330.50, -137610.45, -187500.02, -185176.53, -187500.02, -187500.02, 0.000, 0.000, 0.000, 17:49:24.508
130, -187500.02, 64361.91, -173328.52, -137607.69, -187500.02, -185174.42, -187500.02, -187500.02, 0.000, 0.000, 0.000, 17:49:24.508
131, -187500.02, 64359.97, -173328.09, -137606.52, -187500.02, -185173.84, -187500.02, -187500.02, 0.000, 0.000, 0.000, 17:49:24.508
132, -187500.02, 64353.84, -173326.58, -137604.42, -187500.02, -185172.28, -187500.02, -187500.02, 0.000, 0.000, 0.000, 17:49:24.508
133, -187500.02, 64345.37, -173324.89, -137601.83, -187500.02, -185170.47, -187500.02, -187500.02, 0.000, 0.000, 0.000, 17:49:24.508
134, -187500.02, 64335.98, -173322.66, -137598.88, -187500.02, -185168.08, -187500.02, -187500.02, 0.000, 0.000, 0.000, 17:49:24.518
